File: Data/Task 3.3 LSV/LSV_EIS_251rpm_02_PEIS_C01.txt
freq/Hz	Re(Z)/Ohm	-Im(Z)/Ohm	|Z|/Ohm	Phase(Z)/deg	time/s	<Ewe>/V	<I>/mA	Cs/µF	Cp/µF	cycle number	I Range	|Ewe|/V	|I|/A	Ns	(Q-Qo)/mA.h	Re(Y)/Ohm-1	Im(Y)/Ohm-1	|Y|/Ohm-1	Phase(Y)/deg	Re(C)/nF	Im(C)/nF	|C|/nF	Phase(C)/deg	Re(M)	Im(M)	|M|	Phase(M)/deg	Re(Permittivity)	Im(Permittivity)	|Permittivity|	Phase(Permittivity)/deg	Re(Resistivity)/Ohm.cm	Im(Resistivity)/Ohm.cm	|Resistivity|/Ohm.cm	Phase(Resistivity)/deg	Re(Conductivity)/mS/cm	Im(Conductivity)/mS/cm	|Conductivity|/mS/cm	Phase(Conductivity)/deg	Tan(Delta)	Loss Angle(Delta)/deg	dq/mA.h	Pwe/W	Rwe/Ohm
100004	6.78074	2.14346	7.11146	-17.5423	51.6699	0.291691	-0.0301319	0.742485	0.0674532	1	10	0.00903577	0.00127059	0	-1.20178e-05	0.134079	0.0423837	0.140618	17.5423	67.4532	213.385	223.792	-72.4577	0.0000000E+000	0.0000000E+000	0.0000000E+000	72.4577	0.0000000E+000	0.0000000E+000	0.0000000E+000	-72.4577	0.0000000E+000	0.0000000E+000	0.0000000E+000	-17.5423	0.0000000E+000	0.0000000E+000	0.0000000E+000	17.5423	3.16345	72.4577	-1.20178e-05	-8.7892e-06	9680.44
46596.6	7.02073	4.64337	8.41734	-33.4798	52.5439	0.291676	-0.0313008	0.735584	0.223846	1	10	0.0107818	0.0012809	0	-1.88026e-05	0.0990907	0.0655366	0.118802	33.4798	223.846	338.453	405.78	-56.5202	0.0000000E+000	0.0000000E+000	0.0000000E+000	56.5202	0.0000000E+000	0.0000000E+000	0.0000000E+000	-56.5202	0.0000000E+000	0.0000000E+000	0.0000000E+000	-33.4798	0.0000000E+000	0.0000000E+000	0.0000000E+000	33.4798	1.51199	56.5202	-4.76209e-06	-9.12971e-06	9318.5
21711.7	7.61392	9.66313	12.3024	-51.7642	53.4179	0.291679	-0.0304093	0.758592	0.468024	1	10	0.0106356	0.000864518	0	-2.49808e-05	0.0503074	0.0638472	0.0812853	51.7642	468.024	368.772	595.852	-38.2358	0.0000000E+000	0.0000000E+000	0.0000000E+000	38.2358	0.0000000E+000	0.0000000E+000	0.0000000E+000	-38.2358	0.0000000E+000	0.0000000E+000	0.0000000E+000	-51.7642	0.0000000E+000	0.0000000E+000	0.0000000E+000	51.7642	0.787935	38.2358	-3.19583e-06	-8.86975e-06	9591.78
10113.6	9.31232	19.8113	21.8908	-64.8241	54.1509	0.291682	-0.0311054	0.794332	0.650587	1	10	0.00971191	0.000443652	0	-3.03834e-05	0.0194327	0.0413418	0.0456812	64.8241	650.587	305.808	718.875	-25.1759	0.0000000E+000	0.0000000E+000	0.0000000E+000	25.1759	0.0000000E+000	0.0000000E+000	0.0000000E+000	-25.1759	0.0000000E+000	0.0000000E+000	0.0000000E+000	-64.8241	0.0000000E+000	0.0000000E+000	0.0000000E+000	64.8241	0.47005	25.1759	-2.66775e-06	-9.07289e-06	9377.22
4716.51	14.4202	40.1389	42.6506	-70.2388	55.6961	0.291714	-0.0411006	0.840685	0.744585	1	11	0.0101742	0.000238548	0	-4.39109e-05	0.00792721	0.0220656	0.0234463	70.2388	744.585	267.498	791.177	-19.7612	0.0000000E+000	0.0000000E+000	0.0000000E+000	19.7612	0.0000000E+000	0.0000000E+000	0.0000000E+000	-19.7612	0.0000000E+000	0.0000000E+000	0.0000000E+000	-70.2388	0.0000000E+000	0.0000000E+000	0.0000000E+000	70.2388	0.359257	19.7612	-1.11814e-05	-1.19896e-05	7097.56
2195.7	30.9165	78.1615	84.0539	-68.4189	56.8561	0.291696	-0.0411278	0.927371	0.801907	1	11	0.00987427	0.000117475	0	-5.70095e-05	0.00437598	0.0110631	0.0118971	68.4189	801.907	317.192	862.361	-21.5811	0.0000000E+000	0.0000000E+000	0.0000000E+000	21.5811	0.0000000E+000	0.0000000E+000	0.0000000E+000	-21.5811	0.0000000E+000	0.0000000E+000	0.0000000E+000	-68.4189	0.0000000E+000	0.0000000E+000	0.0000000E+000	68.4189	0.395547	21.5811	-7.74238e-06	-1.19968e-05	7092.43
1024.02	79.7302	135.588	157.292	-59.543	57.7903	0.291691	-0.0410784	1.14629	0.851761	1	11	0.00953066	6.0592e-05	0	-6.75665e-05	0.00322261	0.0054803	0.00635759	59.543	851.761	500.865	988.111	-30.457	0.0000000E+000	0.0000000E+000	0.0000000E+000	30.457	0.0000000E+000	0.0000000E+000	0.0000000E+000	-30.457	0.0000000E+000	0.0000000E+000	0.0000000E+000	-59.543	0.0000000E+000	0.0000000E+000	0.0000000E+000	59.543	0.588035	30.457	-5.29518e-06	-1.19822e-05	7100.84
476.984	183.555	179.643	256.835	-44.383	58.7263	0.291695	-0.0412459	1.8574	0.9087	1	11	0.00945429	3.68108e-05	0	-7.80416e-05	0.00278265	0.00272335	0.00389356	44.383	908.7	928.484	1299.16	-45.617	0.0000000E+000	0.0000000E+000	0.0000000E+000	45.617	0.0000000E+000	0.0000000E+000	0.0000000E+000	-45.617	0.0000000E+000	0.0000000E+000	0.0000000E+000	-44.383	0.0000000E+000	0.0000000E+000	0.0000000E+000	44.383	1.02177	45.617	-5.21217e-06	-1.20312e-05	7072.09
222.348	300.544	162.96	341.881	-28.4673	59.911	0.29172	-0.0420254	4.39244	0.997971	1	12	0.00949486	2.77724e-05	0	-9.11829e-05	0.00257133	0.00139422	0.00292499	28.4673	997.971	1840.54	2093.69	-61.5327	0.0000000E+000	0.0000000E+000	0.0000000E+000	61.5327	0.0000000E+000	0.0000000E+000	0.0000000E+000	-61.5327	0.0000000E+000	0.0000000E+000	0.0000000E+000	-28.4673	0.0000000E+000	0.0000000E+000	0.0000000E+000	28.4673	1.84428	61.5327	-5.29045e-06	-1.22597e-05	6941.52
103.575	372.422	116.831	390.318	-17.417	60.8459	0.291714	-0.0420333	13.1524	1.17839	1	12	0.00945061	2.42126e-05	0	-0.000101908	0.00244455	0.000766872	0.00256201	17.417	1178.39	3756.34	3936.84	-72.583	0.0000000E+000	0.0000000E+000	0.0000000E+000	72.583	0.0000000E+000	0.0000000E+000	0.0000000E+000	-72.583	0.0000000E+000	0.0000000E+000	0.0000000E+000	-17.417	0.0000000E+000	0.0000000E+000	0.0000000E+000	17.417	3.18769	72.583	-5.44276e-06	-1.22617e-05	6940.07
48.2849	408.728	86.0775	417.693	-11.8926	61.7902	0.291719	-0.0419051	38.293	1.62624	1	12	0.0094409	2.26025e-05	0	-0.000112743	0.00234271	0.000493372	0.0023941	11.8926	1626.23	7721.96	7891.35	-78.1074	0.0000000E+000	0.0000000E+000	0.0000000E+000	78.1074	0.0000000E+000	0.0000000E+000	0.0000000E+000	-78.1074	0.0000000E+000	0.0000000E+000	0.0000000E+000	-11.8926	0.0000000E+000	0.0000000E+000	0.0000000E+000	11.8926	4.74837	78.1074	-5.50329e-06	-1.22245e-05	6961.41
22.482	435.43	76.1963	442.047	-9.92573	62.7051	0.291715	-0.0419475	92.9076	2.76046	1	12	0.00943762	2.13498e-05	0	-0.000123174	0.00222834	0.000389939	0.0022622	9.92573	2760.46	15774.9	16014.6	-80.0743	0.0000000E+000	0.0000000E+000	0.0000000E+000	80.0743	0.0000000E+000	0.0000000E+000	0.0000000E+000	-80.0743	0.0000000E+000	0.0000000E+000	0.0000000E+000	-9.92573	0.0000000E+000	0.0000000E+000	0.0000000E+000	9.92573	5.71459	80.0743	-4.77353e-06	-1.22367e-05	6954.28
10.4866	463.178	84.3786	470.801	-10.3245	63.6129	0.291708	-0.0418951	179.868	5.77754	1	12	0.00944009	2.00511e-05	0	-0.000133502	0.00208965	0.000380677	0.00212404	10.3245	5777.54	31714.6	32236.5	-79.6755	0.0000000E+000	0.0000000E+000	0.0000000E+000	79.6755	0.0000000E+000	0.0000000E+000	0.0000000E+000	-79.6755	0.0000000E+000	0.0000000E+000	0.0000000E+000	-10.3245	0.0000000E+000	0.0000000E+000	0.0000000E+000	10.3245	5.48929	79.6755	-5.10048e-06	-1.22211e-05	6962.83
4.88281	499.937	108.595	511.596	-12.2553	64.441	0.291718	-0.0419406	300.15	13.5241	1	12	0.00943567	1.84436e-05	0	-0.000142997	0.00191012	0.000414914	0.00195467	12.2553	13524.1	62260.4	63712.3	-77.7447	0.0000000E+000	0.0000000E+000	0.0000000E+000	77.7447	0.0000000E+000	0.0000000E+000	0.0000000E+000	-77.7447	0.0000000E+000	0.0000000E+000	0.0000000E+000	-12.2553	0.0000000E+000	0.0000000E+000	0.0000000E+000	12.2553	4.60367	77.7447	-5.3158e-06	-1.22348e-05	6955.51
2.27637	549.248	151.052	569.641	-15.3771	66.0796	0.291727	-0.041701	462.862	32.5463	1	12	0.00943657	1.65658e-05	0	-0.000161864	0.00169265	0.000465505	0.00175549	15.3771	32546.3	118343	122737	-74.6229	0.0000000E+000	0.0000000E+000	0.0000000E+000	74.6229	0.0000000E+000	0.0000000E+000	0.0000000E+000	-74.6229	0.0000000E+000	0.0000000E+000	0.0000000E+000	-15.3771	0.0000000E+000	0.0000000E+000	0.0000000E+000	15.3771	3.63616	74.6229	-1.13145e-05	-1.21653e-05	6995.7
1.06148	629.824	214.947	665.493	-18.8438	69.4908	0.291722	-0.0417128	697.551	72.77	1	12	0.00943899	1.41835e-05	0	-0.000201612	0.00142211	0.000485339	0.00150265	18.8438	72770	213226	225302	-71.1562	0.0000000E+000	0.0000000E+000	0.0000000E+000	71.1562	0.0000000E+000	0.0000000E+000	0.0000000E+000	-71.1562	0.0000000E+000	0.0000000E+000	0.0000000E+000	-18.8438	0.0000000E+000	0.0000000E+000	0.0000000E+000	18.8438	2.93014	71.1562	-2.33251e-05	-1.21685e-05	6993.57
0.494337	763.713	292.926	817.963	-20.9846	76.7221	0.291728	-0.0416295	1099.1	140.958	1	12	0.00943874	1.15393e-05	0	-0.000283817	0.00114147	0.000437816	0.00122255	20.9846	140958	367502	393608	-69.0154	0.0000000E+000	0.0000000E+000	0.0000000E+000	69.0154	0.0000000E+000	0.0000000E+000	0.0000000E+000	-69.0154	0.0000000E+000	0.0000000E+000	0.0000000E+000	-20.9846	0.0000000E+000	0.0000000E+000	0.0000000E+000	20.9846	2.60718	69.0154	-4.87153e-05	-1.21445e-05	7007.72
0.230321	983.145	304.923	1029.35	-17.2313	92.1478	0.291728	-0.0415911	2266.18	198.863	1	12	0.0094387	9.16961e-06	0	-0.000461089	0.000927887	0.000287785	0.000971491	17.2313	198863	641182	671312	-72.7687	0.0000000E+000	0.0000000E+000	0.0000000E+000	72.7687	0.0000000E+000	0.0000000E+000	0.0000000E+000	-72.7687	0.0000000E+000	0.0000000E+000	0.0000000E+000	-17.2313	0.0000000E+000	0.0000000E+000	0.0000000E+000	17.2313	3.22424	72.7687	-0.000105646	-1.21333e-05	7014.19
0.107379	1146.87	198.627	1163.95	-9.82557	134.518	0.291728	-0.0417126	7462.11	217.305	1	13	0.00943803	8.10865e-06	0	-0.000953196	0.000846544	0.000146613	0.000859146	9.82557	217305	1.25472e+06	1.2734e+06	-80.1744	0.0000000E+000	0.0000000E+000	0.0000000E+000	80.1744	0.0000000E+000	0.0000000E+000	0.0000000E+000	-80.1744	0.0000000E+000	0.0000000E+000	0.0000000E+000	-9.82557	0.0000000E+000	0.0000000E+000	0.0000000E+000	9.82557	5.77402	80.1744	-0.00033664	-1.21687e-05	6993.76
0.0500352	1198.6	102.26	1202.96	-4.87645	205.265	0.291727	-0.0416609	31105.6	224.777	1	13	0.00943763	7.84536e-06	0	-0.00177733	0.000828277	7.06654e-05	0.000831285	4.87645	224777	2.63463e+06	2.6442e+06	-85.1235	0.0000000E+000	0.0000000E+000	0.0000000E+000	85.1235	0.0000000E+000	0.0000000E+000	0.0000000E+000	-85.1235	0.0000000E+000	0.0000000E+000	0.0000000E+000	-4.87645	0.0000000E+000	0.0000000E+000	0.0000000E+000	4.87645	11.7211	85.1235	-0.000489095	-1.21536e-05	7002.41