File: Data/Task 3.3 LSV/LSV_EIS_2500 rpm_02_PEIS_C01.txt
freq/Hz	Re(Z)/Ohm	-Im(Z)/Ohm	|Z|/Ohm	Phase(Z)/deg	time/s	<Ewe>/V	<I>/mA	Cs/µF	Cp/µF	cycle number	I Range	|Ewe|/V	|I|/A	Ns	(Q-Qo)/mA.h	Re(Y)/Ohm-1	Im(Y)/Ohm-1	|Y|/Ohm-1	Phase(Y)/deg	Re(C)/nF	Im(C)/nF	|C|/nF	Phase(C)/deg	Re(M)	Im(M)	|M|	Phase(M)/deg	Re(Permittivity)	Im(Permittivity)	|Permittivity|	Phase(Permittivity)/deg	Re(Resistivity)/Ohm.cm	Im(Resistivity)/Ohm.cm	|Resistivity|/Ohm.cm	Phase(Resistivity)/deg	Re(Conductivity)/mS/cm	Im(Conductivity)/mS/cm	|Conductivity|/mS/cm	Phase(Conductivity)/deg	Tan(Delta)	Loss Angle(Delta)/deg	dq/mA.h	Pwe/W	Rwe/Ohm
100004	6.70957	2.29282	7.09051	-18.8665	51.6689	0.291647	-0.0653891	0.694119	0.0725804	1	10	0.00905685	0.00127732	0	-2.61755e-05	0.133457	0.0456053	0.141034	18.8665	72.5804	212.395	224.454	-71.1335	0.0000000E+000	0.0000000E+000	0.0000000E+000	71.1335	0.0000000E+000	0.0000000E+000	0.0000000E+000	-71.1335	0.0000000E+000	0.0000000E+000	0.0000000E+000	-18.8665	0.0000000E+000	0.0000000E+000	0.0000000E+000	18.8665	2.92634	71.1335	-2.61755e-05	-1.90705e-05	4460.18
46596.6	6.9297	4.98634	8.53723	-35.7373	52.5429	0.291639	-0.0652253	0.68499	0.233676	1	10	0.0107995	0.00126499	0	-4.40738e-05	0.0950781	0.0684144	0.117134	35.7373	233.676	324.748	400.082	-54.2627	0.0000000E+000	0.0000000E+000	0.0000000E+000	54.2627	0.0000000E+000	0.0000000E+000	0.0000000E+000	-54.2627	0.0000000E+000	0.0000000E+000	0.0000000E+000	-35.7373	0.0000000E+000	0.0000000E+000	0.0000000E+000	35.7373	1.38974	54.2627	-7.41706e-06	-1.90223e-05	4471.26
21711.7	7.51317	10.4574	12.8766	-54.3046	53.4169	0.291646	-0.0652812	0.700973	0.46233	1	10	0.0106243	0.000825092	0	-5.98052e-05	0.0453131	0.0630705	0.0776605	54.3046	462.33	332.162	569.281	-35.6954	0.0000000E+000	0.0000000E+000	0.0000000E+000	35.6954	0.0000000E+000	0.0000000E+000	0.0000000E+000	-35.6954	0.0000000E+000	0.0000000E+000	0.0000000E+000	-54.3046	0.0000000E+000	0.0000000E+000	0.0000000E+000	54.3046	0.718452	35.6954	-8.81742e-06	-1.9039e-05	4467.54
10113.6	9.29847	21.6115	23.527	-66.72	54.1499	0.29166	-0.0656814	0.728166	0.614424	1	10	0.00952424	0.000404822	0	-7.26515e-05	0.0167988	0.0390438	0.0425043	66.72	614.424	264.359	668.881	-23.28	0.0000000E+000	0.0000000E+000	0.0000000E+000	23.28	0.0000000E+000	0.0000000E+000	0.0000000E+000	-23.28	0.0000000E+000	0.0000000E+000	0.0000000E+000	-66.72	0.0000000E+000	0.0000000E+000	0.0000000E+000	66.72	0.430255	23.28	-5.22274e-06	-1.91566e-05	4440.52
4716.51	14.9203	43.8931	46.3597	-71.2259	55.6471	0.291683	-0.0752653	0.768782	0.689152	1	11	0.0100133	0.000215992	0	-9.86115e-05	0.00694219	0.0204228	0.0215705	71.2259	689.152	234.259	727.879	-18.7741	0.0000000E+000	0.0000000E+000	0.0000000E+000	18.7741	0.0000000E+000	0.0000000E+000	0.0000000E+000	-18.7741	0.0000000E+000	0.0000000E+000	0.0000000E+000	-71.2259	0.0000000E+000	0.0000000E+000	0.0000000E+000	71.2259	0.339923	18.7741	-1.72752e-05	-2.19536e-05	3875.4
2195.7	33.6853	85.6297	92.0171	-68.5261	56.8061	0.291677	-0.0753331	0.846491	0.733051	1	11	0.00996591	0.000108305	0	-0.000122389	0.00397836	0.0101132	0.0108675	68.5261	733.051	288.37	787.731	-21.4739	0.0000000E+000	0.0000000E+000	0.0000000E+000	21.4739	0.0000000E+000	0.0000000E+000	0.0000000E+000	-21.4739	0.0000000E+000	0.0000000E+000	0.0000000E+000	-68.5261	0.0000000E+000	0.0000000E+000	0.0000000E+000	68.5261	0.393384	21.4739	-1.42185e-05	-2.19729e-05	3871.82
1024.02	89.8345	146.434	171.794	-58.4717	57.7403	0.291681	-0.0752892	1.06138	0.771151	1	11	0.00964492	5.61424e-05	0	-0.000141547	0.00304388	0.00496165	0.00582093	58.4717	771.151	473.087	904.702	-31.5283	0.0000000E+000	0.0000000E+000	0.0000000E+000	31.5283	0.0000000E+000	0.0000000E+000	0.0000000E+000	-31.5283	0.0000000E+000	0.0000000E+000	0.0000000E+000	-58.4717	0.0000000E+000	0.0000000E+000	0.0000000E+000	58.4717	0.613482	31.5284	-9.60638e-06	-2.19604e-05	3874.14
476.984	203.161	184.104	274.169	-42.1827	58.6773	0.291676	-0.0752612	1.8124	0.817224	1	11	0.00957942	3.49398e-05	0	-0.000160739	0.00270274	0.00244921	0.00364738	42.1827	817.224	901.82	1217.02	-47.8173	0.0000000E+000	0.0000000E+000	0.0000000E+000	47.8173	0.0000000E+000	0.0000000E+000	0.0000000E+000	-47.8173	0.0000000E+000	0.0000000E+000	0.0000000E+000	-42.1827	0.0000000E+000	0.0000000E+000	0.0000000E+000	42.1827	1.10352	47.8173	-9.5813e-06	-2.19519e-05	3875.51
222.348	317.08	156.172	353.454	-26.2217	59.862	0.291704	-0.076157	4.58335	0.894798	1	12	0.0096078	2.71826e-05	0	-0.00018474	0.00253807	0.00125008	0.00282922	26.2217	894.798	1816.73	2025.13	-63.7783	0.0000000E+000	0.0000000E+000	0.0000000E+000	63.7783	0.0000000E+000	0.0000000E+000	0.0000000E+000	-63.7783	0.0000000E+000	0.0000000E+000	0.0000000E+000	-26.2217	0.0000000E+000	0.0000000E+000	0.0000000E+000	26.2217	2.03032	63.7783	-9.66158e-06	-2.22153e-05	3830.3
103.575	380.259	107.149	395.067	-15.7366	60.7979	0.291697	-0.0761217	14.341	1.0549	1	12	0.00956791	2.42184e-05	0	-0.000204218	0.00243634	0.000686506	0.00253121	15.7366	1054.9	3743.72	3889.51	-74.2634	0.0000000E+000	0.0000000E+000	0.0000000E+000	74.2634	0.0000000E+000	0.0000000E+000	0.0000000E+000	-74.2634	0.0000000E+000	0.0000000E+000	0.0000000E+000	-15.7366	0.0000000E+000	0.0000000E+000	0.0000000E+000	15.7366	3.5489	74.2634	-9.82541e-06	-2.22044e-05	3831.98
48.2849	411.743	78.0372	419.073	-10.7319	61.7423	0.291705	-0.0761292	42.2383	1.46464	1	12	0.00956928	2.28344e-05	0	-0.000223859	0.00234448	0.000444347	0.00238622	10.7319	1464.64	7727.79	7865.36	-79.2681	0.0000000E+000	0.0000000E+000	0.0000000E+000	79.2681	0.0000000E+000	0.0000000E+000	0.0000000E+000	-79.2681	0.0000000E+000	0.0000000E+000	0.0000000E+000	-10.7319	0.0000000E+000	0.0000000E+000	0.0000000E+000	10.7319	5.27624	79.2681	-1.00279e-05	-2.22073e-05	3831.72
22.482	435.248	70.4637	440.915	-9.19601	62.657	0.291694	-0.0760376	100.466	2.56591	1	12	0.00956933	2.17033e-05	0	-0.000242909	0.00223886	0.000362457	0.00226801	9.19601	2565.91	15849.4	16055.7	-80.804	0.0000000E+000	0.0000000E+000	0.0000000E+000	80.804	0.0000000E+000	0.0000000E+000	0.0000000E+000	-80.804	0.0000000E+000	0.0000000E+000	0.0000000E+000	-9.19601	0.0000000E+000	0.0000000E+000	0.0000000E+000	9.19601	6.17691	80.804	-8.81395e-06	-2.21797e-05	3836.19
10.4866	463.049	80.5626	470.005	-9.86968	63.5649	0.291693	-0.0760767	188.388	5.53495	1	12	0.0095613	2.0343e-05	0	-0.000261902	0.00209615	0.000364693	0.00212764	9.86968	5534.95	31813.2	32291.1	-80.1303	0.0000000E+000	0.0000000E+000	0.0000000E+000	80.1303	0.0000000E+000	0.0000000E+000	0.0000000E+000	-80.1303	0.0000000E+000	0.0000000E+000	0.0000000E+000	-9.86968	0.0000000E+000	0.0000000E+000	0.0000000E+000	9.86968	5.7477	80.1303	-9.455e-06	-2.21911e-05	3834.2
4.88281	508.455	100.711	518.333	-11.2037	64.395	0.291694	-0.0760093	323.648	12.2182	1	12	0.00956444	1.84523e-05	0	-0.000279113	0.00189249	0.000374851	0.00192926	11.2037	12218.2	61685.7	62884.1	-78.7963	0.0000000E+000	0.0000000E+000	0.0000000E+000	78.7963	0.0000000E+000	0.0000000E+000	0.0000000E+000	-78.7963	0.0000000E+000	0.0000000E+000	0.0000000E+000	-11.2037	0.0000000E+000	0.0000000E+000	0.0000000E+000	11.2037	5.04866	78.7963	-1.01833e-05	-2.21715e-05	3837.61
2.27637	577.484	99.2262	585.947	-9.74964	66.0346	0.291709	-0.0758761	704.613	20.2063	1	12	0.00956394	1.63222e-05	0	-0.000312866	0.00168199	0.000289008	0.00170664	9.74964	20206.3	117598	119322	-80.2504	0.0000000E+000	0.0000000E+000	0.0000000E+000	80.2504	0.0000000E+000	0.0000000E+000	0.0000000E+000	-80.2504	0.0000000E+000	0.0000000E+000	0.0000000E+000	-9.74964	0.0000000E+000	0.0000000E+000	0.0000000E+000	9.74964	5.81987	80.2504	-1.98161e-05	-2.21338e-05	3844.55
1.06148	628.49	65.2756	631.87	-5.92954	69.4466	0.291703	-0.0758157	2296.98	24.5134	1	12	0.00956353	1.51353e-05	0	-0.000384566	0.00157414	0.000163491	0.0015826	5.92954	24513.3	236021	237290	-84.0705	0.0000000E+000	0.0000000E+000	0.0000000E+000	84.0705	0.0000000E+000	0.0000000E+000	0.0000000E+000	-84.0705	0.0000000E+000	0.0000000E+000	0.0000000E+000	-5.92954	0.0000000E+000	0.0000000E+000	0.0000000E+000	5.92954	9.62825	84.0705	-4.26364e-05	-2.21157e-05	3847.53
0.494337	647.002	33.8234	647.885	-2.99254	76.6771	0.291707	-0.0757262	9518.75	25.9429	1	12	0.00956139	1.47578e-05	0	-0.000537713	0.00154138	8.05789e-05	0.00154348	2.99254	25942.9	496257	496934	-87.0075	0.0000000E+000	0.0000000E+000	0.0000000E+000	87.0075	0.0000000E+000	0.0000000E+000	0.0000000E+000	-87.0075	0.0000000E+000	0.0000000E+000	0.0000000E+000	-2.99254	0.0000000E+000	0.0000000E+000	0.0000000E+000	2.99254	19.1288	87.0075	-9.07184e-05	-2.20899e-05	3852.13
0.230321	652.221	16.0308	652.418	-1.40798	92.1038	0.291709	-0.0756288	43105.2	26.0249	1	12	0.0095645	1.46601e-05	0	-0.000860518	0.0015323	3.7662e-05	0.00153276	1.40798	26025	1.05884e+06	1.05916e+06	-88.592	0.0000000E+000	0.0000000E+000	0.0000000E+000	88.592	0.0000000E+000	0.0000000E+000	0.0000000E+000	-88.592	0.0000000E+000	0.0000000E+000	0.0000000E+000	-1.40798	0.0000000E+000	0.0000000E+000	0.0000000E+000	1.40798	40.6855	88.592	-0.000191156	-2.20616e-05	3857.12
0.107379	652.937	7.34044	652.979	-0.644102	125.106	0.291706	-0.0755302	201919	25.5166	1	12	0.0095629	1.4645e-05	0	-0.00154659	0.00153135	1.72157e-05	0.00153144	0.644102	25516.7	2.26972e+06	2.26986e+06	-89.3559	0.0000000E+000	0.0000000E+000	0.0000000E+000	89.3559	0.0000000E+000	0.0000000E+000	0.0000000E+000	-89.3559	0.0000000E+000	0.0000000E+000	0.0000000E+000	-0.644102	0.0000000E+000	0.0000000E+000	0.0000000E+000	0.644102	88.9507	89.3559	-0.000407547	-2.20326e-05	3862.12
0.0500352	653.645	3.32116	653.653	-0.291116	195.853	0.291697	-0.0754477	957756	24.7251	1	12	0.00956448	1.46323e-05	0	-0.00302588	0.00152984	7.7731e-06	0.00152986	0.291116	24725	4.86621e+06	4.86628e+06	-89.7089	0.0000000E+000	0.0000000E+000	0.0000000E+000	89.7089	0.0000000E+000	0.0000000E+000	0.0000000E+000	-89.7089	0.0000000E+000	0.0000000E+000	0.0000000E+000	-0.291116	0.0000000E+000	0.0000000E+000	0.0000000E+000	0.291116	196.812	89.7089	-0.000880675	-2.20079e-05	3866.22