File: Data/Task 3.3 LSV/LSV_EIS_1501rpm_02_PEIS_C01.txt
freq/Hz	Re(Z)/Ohm	-Im(Z)/Ohm	|Z|/Ohm	Phase(Z)/deg	time/s	<Ewe>/V	<I>/mA	Cs/µF	Cp/µF	cycle number	I Range	|Ewe|/V	|I|/A	Ns	(Q-Qo)/mA.h	Re(Y)/Ohm-1	Im(Y)/Ohm-1	|Y|/Ohm-1	Phase(Y)/deg	Re(C)/nF	Im(C)/nF	|C|/nF	Phase(C)/deg	Re(M)	Im(M)	|M|	Phase(M)/deg	Re(Permittivity)	Im(Permittivity)	|Permittivity|	Phase(Permittivity)/deg	Re(Resistivity)/Ohm.cm	Im(Resistivity)/Ohm.cm	|Resistivity|/Ohm.cm	Phase(Resistivity)/deg	Re(Conductivity)/mS/cm	Im(Conductivity)/mS/cm	|Conductivity|/mS/cm	Phase(Conductivity)/deg	Tan(Delta)	Loss Angle(Delta)/deg	dq/mA.h	Pwe/W	Rwe/Ohm
100004	6.74564	2.27285	7.11825	-18.6205	51.6689	0.291664	-0.0576762	0.700218	0.0713884	1	10	0.00907027	0.00127423	0	-2.38551e-05	0.13313	0.0448563	0.140484	18.6205	71.3884	211.875	223.579	-71.3795	0.0000000E+000	0.0000000E+000	0.0000000E+000	71.3795	0.0000000E+000	0.0000000E+000	0.0000000E+000	-71.3795	0.0000000E+000	0.0000000E+000	0.0000000E+000	-18.6205	0.0000000E+000	0.0000000E+000	0.0000000E+000	18.6205	2.96792	71.3795	-2.38551e-05	-1.68221e-05	5056.93
46596.6	6.96593	4.93178	8.53502	-35.298	52.5439	0.291657	-0.0578363	0.692567	0.231238	1	10	0.0108079	0.0012663	0	-3.77886e-05	0.0956246	0.0677009	0.117164	35.298	231.238	326.614	400.185	-54.702	0.0000000E+000	0.0000000E+000	0.0000000E+000	54.702	0.0000000E+000	0.0000000E+000	0.0000000E+000	-54.702	0.0000000E+000	0.0000000E+000	0.0000000E+000	-35.298	0.0000000E+000	0.0000000E+000	0.0000000E+000	35.298	1.41246	54.702	-5.99979e-06	-1.68684e-05	5042.81
21711.7	7.56754	10.3222	12.7991	-53.7537	53.4179	0.291672	-0.0577414	0.710155	0.461895	1	10	0.0106785	0.000834318	0	-5.37075e-05	0.0461954	0.0630111	0.0781307	53.7537	461.895	338.629	572.728	-36.2463	0.0000000E+000	0.0000000E+000	0.0000000E+000	36.2463	0.0000000E+000	0.0000000E+000	0.0000000E+000	-36.2463	0.0000000E+000	0.0000000E+000	0.0000000E+000	-53.7537	0.0000000E+000	0.0000000E+000	0.0000000E+000	53.7537	0.733131	36.2463	-8.51465e-06	-1.68415e-05	5051.35
10113.6	9.32979	21.3004	23.254	-66.3461	54.1509	0.291664	-0.0586087	0.738803	0.619877	1	10	0.00952496	0.000409604	0	-6.3897e-05	0.0172534	0.0393904	0.0430033	66.3461	619.877	271.513	676.733	-23.6539	0.0000000E+000	0.0000000E+000	0.0000000E+000	23.6539	0.0000000E+000	0.0000000E+000	0.0000000E+000	-23.6539	0.0000000E+000	0.0000000E+000	0.0000000E+000	-66.3461	0.0000000E+000	0.0000000E+000	0.0000000E+000	66.3461	0.438011	23.6539	-4.2121e-06	-1.7094e-05	4976.46
4716.51	14.8185	43.2579	45.7257	-71.0905	55.6471	0.291695	-0.0678671	0.78007	0.698144	1	11	0.0100347	0.000219454	0	-8.77684e-05	0.00708737	0.0206893	0.0218696	71.0905	698.144	239.158	737.971	-18.9095	0.0000000E+000	0.0000000E+000	0.0000000E+000	18.9095	0.0000000E+000	0.0000000E+000	0.0000000E+000	-18.9095	0.0000000E+000	0.0000000E+000	0.0000000E+000	-71.0905	0.0000000E+000	0.0000000E+000	0.0000000E+000	71.0905	0.342562	18.9095	-1.61521e-05	-1.97965e-05	4298.04
2195.7	33.1903	84.2963	90.5951	-68.5088	56.8061	0.291688	-0.0678233	0.85988	0.744468	1	11	0.00997264	0.000110079	0	-0.000109285	0.00404391	0.0102707	0.0110381	68.5088	744.468	293.122	800.096	-21.4912	0.0000000E+000	0.0000000E+000	0.0000000E+000	21.4912	0.0000000E+000	0.0000000E+000	0.0000000E+000	-21.4912	0.0000000E+000	0.0000000E+000	0.0000000E+000	-68.5088	0.0000000E+000	0.0000000E+000	0.0000000E+000	68.5088	0.393734	21.4912	-1.28717e-05	-1.97833e-05	4300.71
1024.02	88.1899	144.8	169.542	-58.6566	57.7394	0.291699	-0.0677814	1.07336	0.782938	1	11	0.00965039	5.69204e-05	0	-0.000126623	0.00306807	0.00503749	0.00589825	58.6566	782.938	476.846	916.719	-31.3434	0.0000000E+000	0.0000000E+000	0.0000000E+000	31.3434	0.0000000E+000	0.0000000E+000	0.0000000E+000	-31.3434	0.0000000E+000	0.0000000E+000	0.0000000E+000	-58.6566	0.0000000E+000	0.0000000E+000	0.0000000E+000	58.6566	0.609047	31.3434	-8.63606e-06	-1.97718e-05	4303.53
476.984	200.087	183.365	271.399	-42.5029	58.6753	0.291688	-0.06789	1.8197	0.830643	1	11	0.00957641	3.52853e-05	0	-0.000143917	0.00271645	0.00248942	0.00368461	42.5029	830.643	906.396	1229.44	-47.4971	0.0000000E+000	0.0000000E+000	0.0000000E+000	47.4971	0.0000000E+000	0.0000000E+000	0.0000000E+000	-47.4971	0.0000000E+000	0.0000000E+000	0.0000000E+000	-42.5029	0.0000000E+000	0.0000000E+000	0.0000000E+000	42.5029	1.0912	47.4971	-8.64723e-06	-1.98027e-05	4296.47
222.348	314.741	157.846	352.104	-26.6343	59.861	0.291708	-0.0686124	4.53474	0.911336	1	12	0.00960722	2.72852e-05	0	-0.000165516	0.0025387	0.00127318	0.00284007	26.6343	911.336	1817.18	2032.9	-63.3657	0.0000000E+000	0.0000000E+000	0.0000000E+000	63.3657	0.0000000E+000	0.0000000E+000	0.0000000E+000	-63.3657	0.0000000E+000	0.0000000E+000	0.0000000E+000	-26.6343	0.0000000E+000	0.0000000E+000	0.0000000E+000	26.6343	1.99397	63.3657	-8.66497e-06	-2.00148e-05	4251.53
103.575	379.386	109.013	394.737	-16.0314	60.7969	0.29171	-0.0685684	14.0958	1.07504	1	12	0.00957274	2.42509e-05	0	-0.000183043	0.00243481	0.000699617	0.00253333	16.0314	1075.04	3741.37	3892.76	-73.9686	0.0000000E+000	0.0000000E+000	0.0000000E+000	73.9686	0.0000000E+000	0.0000000E+000	0.0000000E+000	-73.9686	0.0000000E+000	0.0000000E+000	0.0000000E+000	-16.0314	0.0000000E+000	0.0000000E+000	0.0000000E+000	16.0314	3.48021	73.9686	-8.87211e-06	-2.00021e-05	4254.3
48.2849	411.601	79.9472	419.293	-10.992	61.7412	0.291708	-0.0684908	41.2292	1.49891	1	12	0.00957018	2.28246e-05	0	-0.000200746	0.00234121	0.000454745	0.00238497	10.992	1498.91	7717.02	7861.24	-79.008	0.0000000E+000	0.0000000E+000	0.0000000E+000	79.008	0.0000000E+000	0.0000000E+000	0.0000000E+000	-79.008	0.0000000E+000	0.0000000E+000	0.0000000E+000	-10.992	0.0000000E+000	0.0000000E+000	0.0000000E+000	10.992	5.1484	79.008	-9.0109e-06	-1.99794e-05	4259.09
22.482	435.402	71.2842	441.199	-9.298	62.657	0.291706	-0.0685865	99.3097	2.59245	1	12	0.00956443	2.16783e-05	0	-0.000217847	0.00223677	0.000366205	0.00226655	9.298	2592.45	15834.6	16045.4	-80.702	0.0000000E+000	0.0000000E+000	0.0000000E+000	80.702	0.0000000E+000	0.0000000E+000	0.0000000E+000	-80.702	0.0000000E+000	0.0000000E+000	0.0000000E+000	-9.298	0.0000000E+000	0.0000000E+000	0.0000000E+000	9.298	6.10797	80.702	-7.84399e-06	-2.00071e-05	4253.11
10.4866	462.141	80.7091	469.136	-9.90632	63.5648	0.291704	-0.0685776	188.046	5.56559	1	12	0.00956911	2.03973e-05	0	-0.00023485	0.0020998	0.000366712	0.00213158	9.90632	5565.6	31868.7	32351	-80.0937	0.0000000E+000	0.0000000E+000	0.0000000E+000	80.0937	0.0000000E+000	0.0000000E+000	0.0000000E+000	-80.0937	0.0000000E+000	0.0000000E+000	0.0000000E+000	-9.90632	0.0000000E+000	0.0000000E+000	0.0000000E+000	9.90632	5.72601	80.0937	-8.42946e-06	-2.00043e-05	4253.63
4.88281	504.011	105.073	514.847	-11.7759	64.392	0.291705	-0.0685432	310.214	12.9206	1	12	0.00956872	1.85856e-05	0	-0.000250389	0.00190144	0.000396399	0.00194232	11.7759	12920.6	61977.5	63309.9	-78.2241	0.0000000E+000	0.0000000E+000	0.0000000E+000	78.2241	0.0000000E+000	0.0000000E+000	0.0000000E+000	-78.2241	0.0000000E+000	0.0000000E+000	0.0000000E+000	-11.7759	0.0000000E+000	0.0000000E+000	0.0000000E+000	11.7759	4.79679	78.2241	-8.87341e-06	-1.99944e-05	4255.78
2.27637	572.605	131.725	587.561	-12.9552	66.0306	0.291715	-0.0683432	530.774	26.6771	1	12	0.0095639	1.62773e-05	0	-0.000281059	0.00165863	0.000381559	0.00170195	12.9552	26677.1	115965	118994	-77.0448	0.0000000E+000	0.0000000E+000	0.0000000E+000	77.0448	0.0000000E+000	0.0000000E+000	0.0000000E+000	-77.0448	0.0000000E+000	0.0000000E+000	0.0000000E+000	-12.9552	0.0000000E+000	0.0000000E+000	0.0000000E+000	12.9552	4.34698	77.0448	-1.82791e-05	-1.99368e-05	4268.38
1.06148	659.821	114.239	669.637	-9.8226	69.4417	0.291716	-0.0683266	1312.48	38.1982	1	12	0.00956372	1.42819e-05	0	-0.000346117	0.00147145	0.000254762	0.00149335	9.8226	38198.2	220625	223907	-80.1774	0.0000000E+000	0.0000000E+000	0.0000000E+000	80.1774	0.0000000E+000	0.0000000E+000	0.0000000E+000	-80.1774	0.0000000E+000	0.0000000E+000	0.0000000E+000	-9.8226	0.0000000E+000	0.0000000E+000	0.0000000E+000	9.8226	5.7758	80.1774	-3.83701e-05	-1.99319e-05	4269.44
0.494337	709.704	66.2504	712.789	-5.33307	76.6723	0.291717	-0.0682401	4859.69	41.982	1	12	0.00956484	1.34189e-05	0	-0.000481925	0.00139687	0.000130397	0.00140294	5.33307	41982	449730	451685	-84.6669	0.0000000E+000	0.0000000E+000	0.0000000E+000	84.6669	0.0000000E+000	0.0000000E+000	0.0000000E+000	-84.6669	0.0000000E+000	0.0000000E+000	0.0000000E+000	-5.33307	0.0000000E+000	0.0000000E+000	0.0000000E+000	5.33307	10.7124	84.6669	-8.03873e-05	-1.99068e-05	4274.86
0.230321	722.275	31.9249	722.98	-2.53085	92.0989	0.291705	-0.0681706	21644.9	42.2049	1	12	0.0095634	1.32277e-05	0	-0.000771502	0.00138181	6.10769e-05	0.00138316	2.53085	42204.9	954851	955784	-87.4691	0.0000000E+000	0.0000000E+000	0.0000000E+000	87.4691	0.0000000E+000	0.0000000E+000	0.0000000E+000	-87.4691	0.0000000E+000	0.0000000E+000	0.0000000E+000	-2.53085	0.0000000E+000	0.0000000E+000	0.0000000E+000	2.53085	22.6242	87.4691	-0.000172164	-1.98857e-05	4279.04
0.107379	727.07	15.0532	727.226	-1.18608	125.101	0.291704	-0.0681041	98462.3	42.188	1	12	0.0095634	1.31505e-05	0	-0.00139727	0.00137479	2.84636e-05	0.00137509	1.18608	42188.1	2.03768e+06	2.03812e+06	-88.8139	0.0000000E+000	0.0000000E+000	0.0000000E+000	88.8139	0.0000000E+000	0.0000000E+000	0.0000000E+000	-88.8139	0.0000000E+000	0.0000000E+000	0.0000000E+000	-1.18608	0.0000000E+000	0.0000000E+000	0.0000000E+000	1.18608	48.3	88.8139	-0.000372652	-1.98663e-05	4283.21
0.0500352	728.112	6.50807	728.142	-0.512112	195.848	0.291703	-0.0680598	488756	39.045	1	12	0.00956211	1.31322e-05	0	-0.00274587	0.0013733	1.2275e-05	0.00137336	0.512112	39045.2	4.36829e+06	4.36846e+06	-89.4879	0.0000000E+000	0.0000000E+000	0.0000000E+000	89.4879	0.0000000E+000	0.0000000E+000	0.0000000E+000	-89.4879	0.0000000E+000	0.0000000E+000	0.0000000E+000	-0.512112	0.0000000E+000	0.0000000E+000	0.0000000E+000	0.512112	111.878	89.4879	-0.000801229	-1.98533e-05	4285.98