File: Data/Task 3.3 LSV/LSV_EIS_1000rpm_02_PEIS_C01.txt
freq/Hz	Re(Z)/Ohm	-Im(Z)/Ohm	|Z|/Ohm	Phase(Z)/deg	time/s	<Ewe>/V	<I>/mA	Cs/µF	Cp/µF	cycle number	I Range	|Ewe|/V	|I|/A	Ns	(Q-Qo)/mA.h	Re(Y)/Ohm-1	Im(Y)/Ohm-1	|Y|/Ohm-1	Phase(Y)/deg	Re(C)/nF	Im(C)/nF	|C|/nF	Phase(C)/deg	Re(M)	Im(M)	|M|	Phase(M)/deg	Re(Permittivity)	Im(Permittivity)	|Permittivity|	Phase(Permittivity)/deg	Re(Resistivity)/Ohm.cm	Im(Resistivity)/Ohm.cm	|Resistivity|/Ohm.cm	Phase(Resistivity)/deg	Re(Conductivity)/mS/cm	Im(Conductivity)/mS/cm	|Conductivity|/mS/cm	Phase(Conductivity)/deg	Tan(Delta)	Loss Angle(Delta)/deg	dq/mA.h	Pwe/W	Rwe/Ohm
100004	6.76471	2.24906	7.12879	-18.3904	51.6689	0.291674	-0.0515546	0.707623	0.0704327	1	10	0.00907352	0.0012728	0	-2.0637e-05	0.133112	0.0442558	0.140276	18.3904	70.4327	211.847	223.248	-71.6096	0.0000000E+000	0.0000000E+000	0.0000000E+000	71.6096	0.0000000E+000	0.0000000E+000	0.0000000E+000	-71.6096	0.0000000E+000	0.0000000E+000	0.0000000E+000	-18.3904	0.0000000E+000	0.0000000E+000	0.0000000E+000	18.3904	3.00779	71.6096	-2.0637e-05	-1.50372e-05	5657.57
46596.6	6.98722	4.88167	8.52361	-34.9404	52.5429	0.29167	-0.0511061	0.699676	0.229502	1	10	0.0107631	0.00126274	0	-2.97906e-05	0.0961738	0.0671925	0.117321	34.9404	229.502	328.49	400.721	-55.0596	0.0000000E+000	0.0000000E+000	0.0000000E+000	55.0596	0.0000000E+000	0.0000000E+000	0.0000000E+000	-55.0596	0.0000000E+000	0.0000000E+000	0.0000000E+000	-34.9404	0.0000000E+000	0.0000000E+000	0.0000000E+000	34.9404	1.43132	55.0596	-3.0136e-06	-1.49061e-05	5707.15
21711.7	7.5845	10.1988	12.7098	-53.363	53.4169	0.291674	-0.0512047	0.718752	0.462802	1	10	0.0106234	0.000835842	0	-4.14356e-05	0.0469514	0.0631348	0.0786794	53.363	462.802	344.172	576.749	-36.637	0.0000000E+000	0.0000000E+000	0.0000000E+000	36.637	0.0000000E+000	0.0000000E+000	0.0000000E+000	-36.637	0.0000000E+000	0.0000000E+000	0.0000000E+000	-53.363	0.0000000E+000	0.0000000E+000	0.0000000E+000	53.363	0.743669	36.637	-5.90715e-06	-1.49351e-05	5696.22
10113.6	9.33639	21.0124	22.9932	-66.0431	54.1489	0.291677	-0.0506929	0.748929	0.625448	1	10	0.00953245	0.000414577	0	-5.08957e-05	0.0176596	0.0397444	0.0434911	66.0431	625.448	277.904	684.41	-23.9569	0.0000000E+000	0.0000000E+000	0.0000000E+000	23.9569	0.0000000E+000	0.0000000E+000	0.0000000E+000	-23.9569	0.0000000E+000	0.0000000E+000	0.0000000E+000	-66.0431	0.0000000E+000	0.0000000E+000	0.0000000E+000	66.0431	0.444328	23.9569	-3.73416e-06	-1.4786e-05	5753.8
4716.51	14.7739	42.6696	45.1549	-70.9021	55.6461	0.291699	-0.0614123	0.790826	0.706169	1	11	0.0100616	0.000222823	0	-7.18209e-05	0.00724579	0.0209271	0.022146	70.9021	706.169	244.503	747.3	-19.0979	0.0000000E+000	0.0000000E+000	0.0000000E+000	19.0979	0.0000000E+000	0.0000000E+000	0.0000000E+000	-19.0979	0.0000000E+000	0.0000000E+000	0.0000000E+000	-70.9021	0.0000000E+000	0.0000000E+000	0.0000000E+000	70.9021	0.346239	19.0979	-1.4478e-05	-1.79139e-05	4749.85
2195.7	32.7419	83.1914	89.4027	-68.5167	56.8051	0.291697	-0.0615032	0.871301	0.754439	1	11	0.0098458	0.000110129	0	-9.13972e-05	0.00409641	0.0104082	0.0111853	68.5167	754.439	296.927	810.767	-21.4833	0.0000000E+000	0.0000000E+000	0.0000000E+000	21.4833	0.0000000E+000	0.0000000E+000	0.0000000E+000	-21.4833	0.0000000E+000	0.0000000E+000	0.0000000E+000	-68.5167	0.0000000E+000	0.0000000E+000	0.0000000E+000	68.5167	0.393573	21.4833	-1.1656e-05	-1.79403e-05	4742.8
1024.02	86.2742	143.338	167.299	-58.9565	57.7384	0.291691	-0.0614995	1.08431	0.795952	1	11	0.00951801	5.68922e-05	0	-0.000107134	0.00308244	0.00512123	0.00597732	58.9565	795.953	479.079	929.009	-31.0435	0.0000000E+000	0.0000000E+000	0.0000000E+000	31.0435	0.0000000E+000	0.0000000E+000	0.0000000E+000	-31.0435	0.0000000E+000	0.0000000E+000	0.0000000E+000	-58.9565	0.0000000E+000	0.0000000E+000	0.0000000E+000	58.9565	0.601894	31.0435	-7.84404e-06	-1.79389e-05	4742.98
476.984	197.139	183.624	269.41	-42.9672	58.6743	0.291689	-0.0615787	1.81713	0.844149	1	11	0.00945091	3.508e-05	0	-0.000122804	0.0027161	0.0025299	0.00371181	42.9672	844.149	906.278	1238.52	-47.0328	0.0000000E+000	0.0000000E+000	0.0000000E+000	47.0328	0.0000000E+000	0.0000000E+000	0.0000000E+000	-47.0328	0.0000000E+000	0.0000000E+000	0.0000000E+000	-42.9672	0.0000000E+000	0.0000000E+000	0.0000000E+000	42.9672	1.0736	47.0328	-7.83573e-06	-1.79618e-05	4736.85
222.348	312.595	159.868	351.103	-27.0862	59.859	0.291705	-0.0623108	4.47739	0.928282	1	12	0.00948426	2.70128e-05	0	-0.000142396	0.00253579	0.00129686	0.00284817	27.0862	928.282	1815.1	2038.7	-62.9138	0.0000000E+000	0.0000000E+000	0.0000000E+000	62.9138	0.0000000E+000	0.0000000E+000	0.0000000E+000	-62.9138	0.0000000E+000	0.0000000E+000	0.0000000E+000	-27.0862	0.0000000E+000	0.0000000E+000	0.0000000E+000	27.0862	1.95533	62.9138	-7.8614e-06	-1.81764e-05	4681.46
103.575	379.798	111.231	395.751	-16.3237	60.7949	0.291714	-0.0622677	13.8146	1.09131	1	12	0.00945236	2.38846e-05	0	-0.000158274	0.00242498	0.000710203	0.00252684	16.3237	1091.31	3726.27	3882.79	-73.6763	0.0000000E+000	0.0000000E+000	0.0000000E+000	73.6763	0.0000000E+000	0.0000000E+000	0.0000000E+000	-73.6763	0.0000000E+000	0.0000000E+000	0.0000000E+000	-16.3237	0.0000000E+000	0.0000000E+000	0.0000000E+000	16.3237	3.41449	73.6763	-8.03085e-06	-1.81643e-05	4684.84
48.2849	412.955	81.0123	420.826	-11.0992	61.7403	0.291709	-0.0622606	40.6872	1.50784	1	12	0.00944054	2.24333e-05	0	-0.000174348	0.00233183	0.000457452	0.00237628	11.0992	1507.84	7686.1	7832.6	-78.9008	0.0000000E+000	0.0000000E+000	0.0000000E+000	78.9008	0.0000000E+000	0.0000000E+000	0.0000000E+000	-78.9008	0.0000000E+000	0.0000000E+000	0.0000000E+000	-11.0992	0.0000000E+000	0.0000000E+000	0.0000000E+000	11.0992	5.09743	78.9008	-8.19359e-06	-1.8162e-05	4685.29
22.482	438.042	73.276	444.129	-9.49655	62.6551	0.291705	-0.0622619	96.6102	2.62984	1	12	0.00944325	2.12624e-05	0	-0.000189864	0.00222074	0.000371488	0.0022516	9.49655	2629.84	15721.1	15939.6	-80.5034	0.0000000E+000	0.0000000E+000	0.0000000E+000	80.5034	0.0000000E+000	0.0000000E+000	0.0000000E+000	-80.5034	0.0000000E+000	0.0000000E+000	0.0000000E+000	-9.49655	0.0000000E+000	0.0000000E+000	0.0000000E+000	9.49655	5.97797	80.5034	-7.13247e-06	-1.81621e-05	4685.13
10.4866	462.883	82.2872	470.14	-10.0802	63.5629	0.291711	-0.0622328	184.44	5.6502	1	12	0.00944076	2.00807e-05	0	-0.000205362	0.00209419	0.000372286	0.00212702	10.0802	5650.2	31783.6	32281.9	-79.9198	0.0000000E+000	0.0000000E+000	0.0000000E+000	79.9198	0.0000000E+000	0.0000000E+000	0.0000000E+000	-79.9198	0.0000000E+000	0.0000000E+000	0.0000000E+000	-10.0802	0.0000000E+000	0.0000000E+000	0.0000000E+000	10.0802	5.62522	79.9198	-7.71477e-06	-1.8154e-05	4687.42
4.88281	500.798	104.956	511.678	-11.8366	64.391	0.291701	-0.062207	310.558	13.0666	1	12	0.0094387	1.84466e-05	0	-0.000219505	0.0019128	0.000400879	0.00195435	11.8366	13066.6	62347.5	63702	-78.1634	0.0000000E+000	0.0000000E+000	0.0000000E+000	78.1634	0.0000000E+000	0.0000000E+000	0.0000000E+000	-78.1634	0.0000000E+000	0.0000000E+000	0.0000000E+000	-11.8366	0.0000000E+000	0.0000000E+000	0.0000000E+000	11.8366	4.7715	78.1634	-8.19284e-06	-1.81459e-05	4689.21
2.27637	565.883	141.96	583.418	-14.0829	66.0316	0.291717	-0.062051	492.505	29.1598	1	12	0.00943941	1.61795e-05	0	-0.00024711	0.00166252	0.000417069	0.00171404	14.0829	29159.8	116237	119839	-75.9171	0.0000000E+000	0.0000000E+000	0.0000000E+000	75.9171	0.0000000E+000	0.0000000E+000	0.0000000E+000	-75.9171	0.0000000E+000	0.0000000E+000	0.0000000E+000	-14.0829	0.0000000E+000	0.0000000E+000	0.0000000E+000	14.0829	3.9862	75.9171	-1.64164e-05	-1.81013e-05	4701.24
1.06148	668.61	158.179	687.066	-13.3103	69.4437	0.291719	-0.0619849	947.891	50.2412	1	12	0.00943722	1.37355e-05	0	-0.00030635	0.00141637	0.000335083	0.00145546	13.3103	50241.2	212365	218227	-76.6897	0.0000000E+000	0.0000000E+000	0.0000000E+000	76.6897	0.0000000E+000	0.0000000E+000	0.0000000E+000	-76.6897	0.0000000E+000	0.0000000E+000	0.0000000E+000	-13.3103	0.0000000E+000	0.0000000E+000	0.0000000E+000	13.3103	4.22691	76.6897	-3.50266e-05	-1.80822e-05	4706.28
0.494337	758.525	111.752	766.713	-8.38102	76.6751	0.291718	-0.0619148	2880.98	61.2053	1	12	0.00944076	1.23133e-05	0	-0.000430104	0.00129034	0.000190104	0.00130427	8.38102	61205.3	415434	419918	-81.619	0.0000000E+000	0.0000000E+000	0.0000000E+000	81.619	0.0000000E+000	0.0000000E+000	0.0000000E+000	-81.619	0.0000000E+000	0.0000000E+000	0.0000000E+000	-8.38102	0.0000000E+000	0.0000000E+000	0.0000000E+000	8.38102	6.78754	81.619	-7.31937e-05	-1.80617e-05	4711.6
0.230321	795.2	61.0785	797.542	-4.39221	92.102	0.291719	-0.0618253	11313.5	66.354	1	12	0.00943736	1.1833e-05	0	-0.000692419	0.00125017	9.60243e-05	0.00125385	4.39221	66353.9	863883	866427	-85.6078	0.0000000E+000	0.0000000E+000	0.0000000E+000	85.6078	0.0000000E+000	0.0000000E+000	0.0000000E+000	-85.6078	0.0000000E+000	0.0000000E+000	0.0000000E+000	-4.39221	0.0000000E+000	0.0000000E+000	0.0000000E+000	4.39221	13.0193	85.6078	-0.000155745	-1.80356e-05	4718.44
0.107379	802.532	27.89	803.017	-1.99037	125.104	0.291722	-0.0617962	53143.6	64.1059	1	12	0.00943765	1.17527e-05	0	-0.00125765	0.00124455	4.32513e-05	0.0012453	1.99037	64106	1.84464e+06	1.84576e+06	-88.0096	0.0000000E+000	0.0000000E+000	0.0000000E+000	88.0096	0.0000000E+000	0.0000000E+000	0.0000000E+000	-88.0096	0.0000000E+000	0.0000000E+000	0.0000000E+000	-1.99037	0.0000000E+000	0.0000000E+000	0.0000000E+000	1.99037	28.7749	88.0096	-0.000336581	-1.80273e-05	4720.71
0.0500352	805.148	13.0601	805.254	-0.929296	195.851	0.291721	-0.0617745	243556	64.0654	1	12	0.00943835	1.1721e-05	0	-0.00248046	0.00124168	2.01409e-05	0.00124184	0.929296	64065.6	3.94961e+06	3.95013e+06	-89.0707	0.0000000E+000	0.0000000E+000	0.0000000E+000	89.0707	0.0000000E+000	0.0000000E+000	0.0000000E+000	-89.0707	0.0000000E+000	0.0000000E+000	0.0000000E+000	-0.929296	0.0000000E+000	0.0000000E+000	0.0000000E+000	0.929296	61.6497	89.0707	-0.000727354	-1.80209e-05	4722.35