File: CoinCells/2025-09-26_09-06-51_Practical Course EC2 SoSe25_EC2_Group3_FZ_A.6.csv
Header line count: 79
Export version: 3.12
User:
 - name: Labor Labor
 - login: Labor
 - email: N/A

Project:
 - name: Practical Course EC2 SoSe25
 - tags: N/A
 - creator: Labor Labor

Test Plan:
 - name: CoinCell_Cycling_SoSe25
 - tags: N/A
 - creator: Labor Labor
 - tasks:
Step,Type,Control Parameters,Limits,Record Conditions
1,REST,,TIME > 6.0000h then NEXT_STEP,DELTA_TIME = 30.000s
2,LOOP,LOOP_ID: LOOP_1 LOOP_MODE: COUNTER COUNTER: 1 ,COUNTER > 10 then NEXT_STEP,
3,CC,I: 237.50µA I_RANGE_MODE: FIX I_RANGE: 1.0000mA,TIME > 12.000h then NEXT_STEP U > 4.2000V then NEXT_STEP,DELTA_TIME = 30.000s
4,CC,I: -237.50µA I_RANGE_MODE: FIX I_RANGE: 1.0000mA,TIME > 12.000h then NEXT_STEP U < 2.4000V then NEXT_STEP,DELTA_TIME = 30.000s
N/A,LOOP,END LOOP_ID : LOOP_1,
5,LOOP,LOOP_ID: LOOP_2 LOOP_MODE: COUNTER COUNTER: 1 ,COUNTER > 10 then NEXT_STEP,
6,CC,I: 2375.0µA I_RANGE_MODE: FIX I_RANGE: 10.000mA,TIME > 2.0000h then NEXT_STEP U > 4.2000V then NEXT_STEP,DELTA_TIME = 10.000s
7,CC,I: -2375.0µA I_RANGE_MODE: FIX I_RANGE: 10.000mA,TIME > 2.0000h then NEXT_STEP U < 2.4000V then NEXT_STEP,DELTA_TIME = 10.000s
N/A,LOOP,END LOOP_ID : LOOP_2,
8,LOOP,LOOP_ID: LOOP_3 LOOP_MODE: COUNTER COUNTER: 1 ,COUNTER > 10 then NEXT_STEP,
9,CC,I: 4750.0µA I_RANGE_MODE: FIX I_RANGE: 10.000mA,TIME > 1.0000h then NEXT_STEP U > 4.2000V then NEXT_STEP,DELTA_TIME = 5.0000s
10,CC,I: -4750.0µA I_RANGE_MODE: FIX I_RANGE: 10.000mA,TIME > 1.0000h then NEXT_STEP U < 2.4000V then NEXT_STEP,DELTA_TIME = 5.0000s
N/A,LOOP,END LOOP_ID : LOOP_3,
 - no user variable
 - safety limits (after a time of 10.000ms):
  - U > 4.7000V then SAFETY_STOP

DUT Type:
 - name: Default Device Under Test
 - electrolyte: N/A
 - electrode material: N/A
 - description: N/A
 - tags: N/A
 - nominal capacity: N/A
 - maximum voltage: N/A
 - nominal voltage: N/A
 - minimum voltage: N/A
 - nominal energy: N/A
 - maximum discharge current: N/A
 - maximum charge current: N/A
 - mass: N/A
 - volume: N/A
 - surface area: N/A
 - characteristic mass: N/A
 - mass of active material: N/A
 - x: N/A
 - Molecular weight of active material at x=0: N/A
 - Acquisition started at x0=: N/A
 - Intercalated ion molecular weight of active material at x=0: N/A
 - Number of electrons transferred per intercalated ions: N/A

Test Run:
  - name: EC2_Group3_FZ
  - tags: N/A
  - creator: Labor Labor
  - batch number: N/A
  - started on: 2025-09-16 10:22:58.1818
  - finished on: 2025-09-16 19:54:16.2813

Dut Run:
  - DUT Name: N/A
  - Comment: N/A

Instrument:
  - channel: A.6
  - model: BCS-905
  - serial number: 0729

System version: 3.0.0-9
System address: 10.128.128.50

Time /s,Step,Task,Cycle number,Loop 1 number,Loop 2 number,Loop 3 number,Loop 4 number,U /V,I /A,P /W,Q /Ah,Q charge /Ah,Q discharge /Ah,Capacity /Ah,Energy /Wh,Energy charge /Wh,Energy discharge /Wh,Temperature /CelsiusDegrees,I Range /A,Phase,Frequency /Hz,Ua /V,Ia /A,Impedance module /Ohms,Impedance phase /rad,Real impedance /Ohms,- Imaginary impedance /Ohms,Admittance module /Ohms,Admittance phase /rad,Real admittance /Ohms,Imaginary admittance /Ohms,@Var1,@Var2,@Var3,@Var4,@Var5,@Var6,@Var7,@Var8,@Var9,@Var10,Date Time /ns,Duration (step) /s,Umin (step) /V,Umax (step) /V,Umean (step) /V,Ubegin (step) /V,Uend (step) /V,Imin (step) /A,Imax (step) /A,Imean (step) /A,Ibegin (step) /A,Iend (step) /A,Q (step) /Ah,Q charge (step) /Ah,Q discharge (step) /Ah,Energy (step) /Wh,Energy charge (step) /Wh,Energy discharge (step) /Wh,Pmin (step) /W,Pmax (step) /W,Rdc (step) /Ohms,Rac (step) /Ohms,Counter value (loop),Loop ID (loop),List value (loop),Duration (loop) /s,Q (loop) /Ah,Q charge (loop) /Ah,Q discharge (loop) /Ah,Energy (loop) /Wh,Energy charge (loop) /Wh,Energy discharge (loop) /Wh,Duration (cycle) /s,Q (cycle) /Ah,Q charge (cycle) /Ah,Q discharge (cycle) /Ah,Efficiency (cycle) /none,Energy (cycle) /Wh,Energy charge (cycle) /Wh,Energy discharge (cycle) /Wh
0.005,task_1,REST,,,,,,0.372362,0.0,0.0,0.0,0.0,0.0,0.0,0.0,0.0,0.0,,,,,,,,,,,,,,,,,,,,,,,,,1.75802e+09,,,,,,,,,,,,,,,,,,,,,,,,,,,,,,,,,,,,,,,
750.005,task_1,REST,,,,,,0.376719,0.0,0.0,0.0,0.0,0.0,0.0,0.0,0.0,0.0,,,,,,,,,,,,,,,,,,,,,,,,,1.75802e+09,,,,,,,,,,,,,,,,,,,,,,,,,,,,,,,,,,,,,,,
1500.005,task_1,REST,,,,,,0.381108,0.0,0.0,0.0,0.0,0.0,0.0,0.0,0.0,0.0,,,,,,,,,,,,,,,,,,,,,,,,,1.75802e+09,,,,,,,,,,,,,,,,,,,,,,,,,,,,,,,,,,,,,,,
2250.005,task_1,REST,,,,,,0.387913,0.0,0.0,0.0,0.0,0.0,0.0,0.0,0.0,0.0,,,,,,,,,,,,,,,,,,,,,,,,,1.75802e+09,,,,,,,,,,,,,,,,,,,,,,,,,,,,,,,,,,,,,,,
3000.005,task_1,REST,,,,,,0.39007,0.0,0.0,0.0,0.0,0.0,0.0,0.0,0.0,0.0,,,,,,,,,,,,,,,,,,,,,,,,,1.75802e+09,,,,,,,,,,,,,,,,,,,,,,,,,,,,,,,,,,,,,,,
3750.005,task_1,REST,,,,,,0.391348,0.0,0.0,0.0,0.0,0.0,0.0,0.0,0.0,0.0,,,,,,,,,,,,,,,,,,,,,,,,,1.75802e+09,,,,,,,,,,,,,,,,,,,,,,,,,,,,,,,,,,,,,,,
4500.005,task_1,REST,,,,,,0.392179,0.0,0.0,0.0,0.0,0.0,0.0,0.0,0.0,0.0,,,,,,,,,,,,,,,,,,,,,,,,,1.75802e+09,,,,,,,,,,,,,,,,,,,,,,,,,,,,,,,,,,,,,,,
5250.005,task_1,REST,,,,,,0.392748,0.0,0.0,0.0,0.0,0.0,0.0,0.0,0.0,0.0,,,,,,,,,,,,,,,,,,,,,,,,,1.75802e+09,,,,,,,,,,,,,,,,,,,,,,,,,,,,,,,,,,,,,,,
6000.005,task_1,REST,,,,,,0.393172,0.0,0.0,0.0,0.0,0.0,0.0,0.0,0.0,0.0,,,,,,,,,,,,,,,,,,,,,,,,,1.75802e+09,,,,,,,,,,,,,,,,,,,,,,,,,,,,,,,,,,,,,,,
6750.005,task_1,REST,,,,,,0.393491,0.0,0.0,0.0,0.0,0.0,0.0,0.0,0.0,0.0,,,,,,,,,,,,,,,,,,,,,,,,,1.75802e+09,,,,,,,,,,,,,,,,,,,,,,,,,,,,,,,,,,,,,,,
7500.005,task_1,REST,,,,,,0.393771,0.0,0.0,0.0,0.0,0.0,0.0,0.0,0.0,0.0,,,,,,,,,,,,,,,,,,,,,,,,,1.75803e+09,,,,,,,,,,,,,,,,,,,,,,,,,,,,,,,,,,,,,,,
8250.005,task_1,REST,,,,,,0.394085,0.0,0.0,0.0,0.0,0.0,0.0,0.0,0.0,0.0,,,,,,,,,,,,,,,,,,,,,,,,,1.75803e+09,,,,,,,,,,,,,,,,,,,,,,,,,,,,,,,,,,,,,,,
9000.005,task_1,REST,,,,,,0.394303,0.0,0.0,0.0,0.0,0.0,0.0,0.0,0.0,0.0,,,,,,,,,,,,,,,,,,,,,,,,,1.75803e+09,,,,,,,,,,,,,,,,,,,,,,,,,,,,,,,,,,,,,,,
9750.005,task_1,REST,,,,,,0.394352,0.0,0.0,0.0,0.0,0.0,0.0,0.0,0.0,0.0,,,,,,,,,,,,,,,,,,,,,,,,,1.75803e+09,,,,,,,,,,,,,,,,,,,,,,,,,,,,,,,,,,,,,,,
10500.005,task_1,REST,,,,,,0.394421,0.0,0.0,0.0,0.0,0.0,0.0,0.0,0.0,0.0,,,,,,,,,,,,,,,,,,,,,,,,,1.75803e+09,,,,,,,,,,,,,,,,,,,,,,,,,,,,,,,,,,,,,,,
11250.005,task_1,REST,,,,,,0.394401,0.0,0.0,0.0,0.0,0.0,0.0,0.0,0.0,0.0,,,,,,,,,,,,,,,,,,,,,,,,,1.75803e+09,,,,,,,,,,,,,,,,,,,,,,,,,,,,,,,,,,,,,,,
12000.005,task_1,REST,,,,,,0.394281,0.0,0.0,0.0,0.0,0.0,0.0,0.0,0.0,0.0,,,,,,,,,,,,,,,,,,,,,,,,,1.75803e+09,,,,,,,,,,,,,,,,,,,,,,,,,,,,,,,,,,,,,,,
12750.005,task_1,REST,,,,,,0.394096,0.0,0.0,0.0,0.0,0.0,0.0,0.0,0.0,0.0,,,,,,,,,,,,,,,,,,,,,,,,,1.75803e+09,,,,,,,,,,,,,,,,,,,,,,,,,,,,,,,,,,,,,,,
13500.005,task_1,REST,,,,,,0.393674,0.0,0.0,0.0,0.0,0.0,0.0,0.0,0.0,0.0,,,,,,,,,,,,,,,,,,,,,,,,,1.75803e+09,,,,,,,,,,,,,,,,,,,,,,,,,,,,,,,,,,,,,,,
14250.005,task_1,REST,,,,,,0.393499,0.0,0.0,0.0,0.0,0.0,0.0,0.0,0.0,0.0,,,,,,,,,,,,,,,,,,,,,,,,,1.75803e+09,,,,,,,,,,,,,,,,,,,,,,,,,,,,,,,,,,,,,,,
15000.005,task_1,REST,,,,,,0.393142,0.0,0.0,0.0,0.0,0.0,0.0,0.0,0.0,0.0,,,,,,,,,,,,,,,,,,,,,,,,,1.75803e+09,,,,,,,,,,,,,,,,,,,,,,,,,,,,,,,,,,,,,,,
15750.005,task_1,REST,,,,,,0.392777,0.0,0.0,0.0,0.0,0.0,0.0,0.0,0.0,0.0,,,,,,,,,,,,,,,,,,,,,,,,,1.75803e+09,,,,,,,,,,,,,,,,,,,,,,,,,,,,,,,,,,,,,,,
16500.005,task_1,REST,,,,,,0.392386,0.0,0.0,0.0,0.0,0.0,0.0,0.0,0.0,0.0,,,,,,,,,,,,,,,,,,,,,,,,,1.75803e+09,,,,,,,,,,,,,,,,,,,,,,,,,,,,,,,,,,,,,,,
17250.005,task_1,REST,,,,,,0.392083,0.0,0.0,0.0,0.0,0.0,0.0,0.0,0.0,0.0,,,,,,,,,,,,,,,,,,,,,,,,,1.75804e+09,,,,,,,,,,,,,,,,,,,,,,,,,,,,,,,,,,,,,,,
18000.005,task_1,REST,,,,,,0.391802,0.0,0.0,0.0,0.0,0.0,0.0,0.0,0.0,0.0,,,,,,,,,,,,,,,,,,,,,,,,,1.75804e+09,,,,,,,,,,,,,,,,,,,,,,,,,,,,,,,,,,,,,,,
18750.005,task_1,REST,,,,,,0.391528,0.0,0.0,0.0,0.0,0.0,0.0,0.0,0.0,0.0,,,,,,,,,,,,,,,,,,,,,,,,,1.75804e+09,,,,,,,,,,,,,,,,,,,,,,,,,,,,,,,,,,,,,,,
19500.005,task_1,REST,,,,,,0.391143,0.0,0.0,0.0,0.0,0.0,0.0,0.0,0.0,0.0,,,,,,,,,,,,,,,,,,,,,,,,,1.75804e+09,,,,,,,,,,,,,,,,,,,,,,,,,,,,,,,,,,,,,,,
20250.005,task_1,REST,,,,,,0.390521,0.0,0.0,0.0,0.0,0.0,0.0,0.0,0.0,0.0,,,,,,,,,,,,,,,,,,,,,,,,,1.75804e+09,,,,,,,,,,,,,,,,,,,,,,,,,,,,,,,,,,,,,,,
21000.005,task_1,REST,,,,,,0.389794,0.0,0.0,0.0,0.0,0.0,0.0,0.0,0.0,0.0,,,,,,,,,,,,,,,,,,,,,,,,,1.75804e+09,,,,,,,,,,,,,,,,,,,,,,,,,,,,,,,,,,,,,,,
21720.075,task_3,CC,1,1,,,,2.85196,0.000237629,0.000677709,7.92198e-06,7.92198e-06,0.0,7.92198e-06,1.95624e-05,1.95624e-05,0.0,,0.001,CHARGE,,,,,,,,,,,,,,,,,,,,,,1.75804e+09,,,,,,,,,,,,,,,,,,,,,,,,,,,,,,,,,,,,,,,
22470.075,task_3,CC,1,1,,,,3.57939,0.000237625,0.000850551,5.74354e-05,5.74354e-05,0.0,5.74354e-05,0.000185227,0.000185227,0.0,,0.001,CHARGE,,,,,,,,,,,,,,,,,,,,,,1.75804e+09,,,,,,,,,,,,,,,,,,,,,,,,,,,,,,,,,,,,,,,
23220.075,task_3,CC,1,1,,,,3.88379,0.000237647,0.000922974,0.000106949,0.000106949,0.0,0.000106949,0.00037042,0.00037042,0.0,,0.001,CHARGE,,,,,,,,,,,,,,,,,,,,,,1.75804e+09,,,,,,,,,,,,,,,,,,,,,,,,,,,,,,,,,,,,,,,
23970.075,task_3,CC,1,1,,,,4.15521,0.000237681,0.000987613,0.000156461,0.000156461,0.0,0.000156461,0.000568685,0.000568685,0.0,,0.001,CHARGE,,,,,,,,,,,,,,,,,,,,,,1.75804e+09,,,,,,,,,,,,,,,,,,,,,,,,,,,,,,,,,,,,,,,
24610.323,task_3,CC,2,2,,,,2.70756,0.00023488,0.000635953,0.000126697,6.52445e-11,0.0,6.52445e-11,0.000495491,1.76654e-10,0.0,,0.001,CHARGE,,,,,,,,,,,,,,,,,,,,,,1.75804e+09,,,,,,,,,,,,,,,,,,,,,,,,,,,,,,,,,,,,,,,
25360.323,task_3,CC,2,2,,,,4.18311,0.000237625,0.000994009,0.000176209,4.95124e-05,0.0,4.95124e-05,0.000690169,0.000194678,0.0,,0.001,CHARGE,,,,,,,,,,,,,,,,,,,,,,1.75804e+09,,,,,,,,,,,,,,,,,,,,,,,,,,,,,,,,,,,,,,,
26044.913,task_3,CC,3,3,,,,3.8006,0.000237651,0.000903215,0.000150796,7.92201e-06,0.0,7.92201e-06,0.000630922,2.92791e-05,0.0,,0.001,CHARGE,,,,,,,,,,,,,,,,,,,,,,1.75804e+09,,,,,,,,,,,,,,,,,,,,,,,,,,,,,,,,,,,,,,,
26760.125,task_4,CC,3,3,,,,2.8564,-0.00023743,-0.000678195,0.000178216,0.0,9.89241e-06,9.89241e-06,0.000751193,0.0,2.96321e-05,,0.001,DISCHARGE,,,,,,,,,,,,,,,,,,,,,,1.75804e+09,,,,,,,,,,,,,,,,,,,,,,,,,,,,,,,,,,,,,,,
27451.764,task_3,CC,4,4,,,,4.00974,0.000237694,0.000953092,0.000176152,2.17853e-05,0.0,2.17853e-05,0.000772616,8.40013e-05,0.0,,0.001,CHARGE,,,,,,,,,,,,,,,,,,,,,,1.75805e+09,,,,,,,,,,,,,,,,,,,,,,,,,,,,,,,,,,,,,,,
28170.671,task_4,CC,4,4,,,,2.49071,-0.000237481,-0.000591498,0.000168186,0.0,2.76988e-05,2.76988e-05,0.000776686,0.0,7.69852e-05,,0.001,DISCHARGE,,,,,,,,,,,,,,,,,,,,,,1.75805e+09,,,,,,,,,,,,,,,,,,,,,,,,,,,,,,,,,,,,,,,
28836.503,task_4,CC,5,5,,,,3.89084,-0.000233484,-0.000908449,0.000202716,0.0,6.48567e-11,6.48567e-11,0.000921456,0.0,2.52347e-10,,0.001,DISCHARGE,,,,,,,,,,,,,,,,,,,,,,1.75805e+09,,,,,,,,,,,,,,,,,,,,,,,,,,,,,,,,,,,,,,,
29554.954,task_3,CC,6,6,,,,3.98251,0.000237641,0.000946407,0.000187008,1.58439e-05,0.0,1.58439e-05,0.000896021,6.09293e-05,0.0,,0.001,CHARGE,,,,,,,,,,,,,,,,,,,,,,1.75805e+09,,,,,,,,,,,,,,,,,,,,,,,,,,,,,,,,,,,,,,,
30245.062,task_4,CC,6,6,,,,2.54162,-0.000237496,-0.000603626,0.000185058,0.0,2.3742e-05,2.3742e-05,0.000918376,0.0,6.69057e-05,,0.001,DISCHARGE,,,,,,,,,,,,,,,,,,,,,,1.75805e+09,,,,,,,,,,,,,,,,,,,,,,,,,,,,,,,,,,,,,,,
30906.239,task_4,CC,7,7,,,,3.88413,-0.000233395,-0.000906536,0.000214238,0.0,6.48319e-11,6.48319e-11,0.00104605,0.0,2.51816e-10,,0.001,DISCHARGE,,,,,,,,,,,,,,,,,,,,,,1.75805e+09,,,,,,,,,,,,,,,,,,,,,,,,,,,,,,,,,,,,,,,
31607.587,task_3,CC,8,8,,,,4.00966,0.00023762,0.000952774,0.000199657,1.58437e-05,0.0,1.58437e-05,0.00102416,6.13762e-05,0.0,,0.001,CHARGE,,,,,,,,,,,,,,,,,,,,,,1.75805e+09,,,,,,,,,,,,,,,,,,,,,,,,,,,,,,,,,,,,,,,
32323.268,task_4,CC,8,8,,,,2.44373,-0.000237415,-0.00058018,0.000191477,0.0,2.76991e-05,2.76991e-05,0.00102784,0.0,7.64886e-05,,0.001,DISCHARGE,,,,,,,,,,,,,,,,,,,,,,1.75805e+09,,,,,,,,,,,,,,,,,,,,,,,,,,,,,,,,,,,,,,,
32969.081,task_4,CC,9,9,,,,2.93379,-0.000237448,-0.000696624,0.000217761,0.0,5.9355e-06,5.9355e-06,0.00114245,0.0,1.80543e-05,,0.001,DISCHARGE,,,,,,,,,,,,,,,,,,,,,,1.75805e+09,,,,,,,,,,,,,,,,,,,,,,,,,,,,,,,,,,,,,,,
33685.436,task_3,CC,10,10,,,,4.10578,0.000237683,0.000975874,0.000218026,2.37657e-05,0.0,2.37657e-05,0.00117395,9.39622e-05,0.0,,0.001,CHARGE,,,,,,,,,,,,,,,,,,,,,,1.75805e+09,,,,,,,,,,,,,,,,,,,,,,,,,,,,,,,,,,,,,,,
34277.108,task_7,CC,11,,1,,,2.49565,-0.00212201,-0.0052958,0.000198839,0.0,5.89447e-10,5.89447e-10,0.00113557,0.0,1.47105e-09,,0.01,DISCHARGE,,,,,,,,,,,,,,,,,,,,,,1.75805e+09,,,,,,,,,,,,,,,,,,,,,,,,,,,,,,,,,,,,,,,
34277.317,task_7,CC,17,,7,,,2.13075,-0.00231877,-0.00494072,0.000198858,0.0,2.49498e-09,2.49498e-09,0.00113568,0.0,5.74471e-09,,0.01,DISCHARGE,,,,,,,,,,,,,,,,,,,,,,1.75805e+09,,,,,,,,,,,,,,,,,,,,,,,,,,,,,,,,,,,,,,,
34277.513,task_9,CC,24,,,4,,4.20038,0.00427337,0.0179498,0.000198867,1.18705e-09,0.0,1.18705e-09,0.00113577,4.98606e-09,0.0,,0.01,CHARGE,,,,,,,,,,,,,,,,,,,,,,1.75805e+09,,,,,,,,,,,,,,,,,,,,,,,,,,,,,,,,,,,,,,,
34277.681,task_9,CC,30,,,10,,4.96351,0.00463211,0.0229915,0.000198875,5.01256e-09,0.0,5.01256e-09,0.00113587,2.32558e-08,0.0,,0.01,CHARGE,,,,,,,,,,,,,,,,,,,,,,1.75805e+09,,,,,,,,,,,,,,,,,,,,,,,,,,,,,,,,,,,,,,,
34277.112,task_7,CC,11,,1,,,,,,,,,,,,,,,DISCHARGE,,,,,,,,,,,,,,,,,,,,,,1758052454.112,0.004,2.09464,2.49565,2.2611,2.49565,2.09464,-0.00231681,-0.00212201,-0.00225323,-0.00212201,-0.00231681,-2.50359e-09,0.0,2.50359e-09,-5.64825e-09,0.0,5.64825e-09,-0.0052958,-0.00485287,,,,,,,,,,,,,,,,,,,,
34277.516,task_9,CC,24,,,4,,,,,,,,,,,,,,CHARGE,,,,,,,,,,,,,,,,,,,,,,1758052454.516,0.003,4.20038,4.81901,4.53981,4.20038,4.81901,0.00427337,0.00459875,0.00447014,0.00427337,0.00459875,3.72511e-09,3.72511e-09,0.0,1.6941e-08,1.6941e-08,0.0,0.0179498,0.0221614,,,,,,,,,,,,,,,,,,,,
34277.152,task_5,LOOP,12,,2,,,,,,,,,,,,,,,,,,,,,,,,,,,,,,,,,,,,,1758052454.152,,,,,,,,,,,,,,,,,,,,,,2,2,2.0,0.016,5.2122e-09,7.71317e-09,2.50097e-09,2.55634e-08,3.12476e-08,5.68424e-09,,,,,,,,
31367.575,,,7,,,,,,,,,,,,,,,,,,,,,,,,,,,,,,,,,,,,,,,1758049544.575,,,,,,,,,,,,,,,,,,,,,,,,,,,,,,,,1012.88,5.98538e-06,3.641e-05,3.04246e-05,0.835611,6.22696e-05,0.000145527,8.32572e-05
34277.694,,,30,,,,,,,,,,,,,,,,,,,,,,,,,,,,,,,,,,,,,,,1758052454.694,,,,,,,,,,,,,,,,,,,,,,,,,,,,,,,,0.016,1.25709e-09,5.01256e-09,3.75547e-09,0.749211,1.69289e-08,2.32558e-08,6.32692e-09