File: CoinCells/2025-09-26_09-06-51_Practical Course EC2 SoSe25_EC2_Group3_DS_A.7.csv
Header line count: 79
Export version: 3.12
User:
 - name: Labor Labor
 - login: Labor
 - email: N/A

Project:
 - name: Practical Course EC2 SoSe25
 - tags: N/A
 - creator: Labor Labor

Test Plan:
 - name: CoinCell_Cycling_SoSe25
 - tags: N/A
 - creator: Labor Labor
 - tasks:
Step,Type,Control Parameters,Limits,Record Conditions
1,REST,,TIME > 6.0000h then NEXT_STEP,DELTA_TIME = 30.000s
2,LOOP,LOOP_ID: LOOP_1 LOOP_MODE: COUNTER COUNTER: 1 ,COUNTER > 10 then NEXT_STEP,
3,CC,I: 237.50µA I_RANGE_MODE: FIX I_RANGE: 1.0000mA,TIME > 12.000h then NEXT_STEP U > 4.2000V then NEXT_STEP,DELTA_TIME = 30.000s
4,CC,I: -237.50µA I_RANGE_MODE: FIX I_RANGE: 1.0000mA,TIME > 12.000h then NEXT_STEP U < 2.4000V then NEXT_STEP,DELTA_TIME = 30.000s
N/A,LOOP,END LOOP_ID : LOOP_1,
5,LOOP,LOOP_ID: LOOP_2 LOOP_MODE: COUNTER COUNTER: 1 ,COUNTER > 10 then NEXT_STEP,
6,CC,I: 2375.0µA I_RANGE_MODE: FIX I_RANGE: 10.000mA,TIME > 2.0000h then NEXT_STEP U > 4.2000V then NEXT_STEP,DELTA_TIME = 10.000s
7,CC,I: -2375.0µA I_RANGE_MODE: FIX I_RANGE: 10.000mA,TIME > 2.0000h then NEXT_STEP U < 2.4000V then NEXT_STEP,DELTA_TIME = 10.000s
N/A,LOOP,END LOOP_ID : LOOP_2,
8,LOOP,LOOP_ID: LOOP_3 LOOP_MODE: COUNTER COUNTER: 1 ,COUNTER > 10 then NEXT_STEP,
9,CC,I: 4750.0µA I_RANGE_MODE: FIX I_RANGE: 10.000mA,TIME > 1.0000h then NEXT_STEP U > 4.2000V then NEXT_STEP,DELTA_TIME = 5.0000s
10,CC,I: -4750.0µA I_RANGE_MODE: FIX I_RANGE: 10.000mA,TIME > 1.0000h then NEXT_STEP U < 2.4000V then NEXT_STEP,DELTA_TIME = 5.0000s
N/A,LOOP,END LOOP_ID : LOOP_3,
 - no user variable
 - safety limits (after a time of 10.000ms):
  - U > 4.7000V then SAFETY_STOP

DUT Type:
 - name: Default Device Under Test
 - electrolyte: N/A
 - electrode material: N/A
 - description: N/A
 - tags: N/A
 - nominal capacity: N/A
 - maximum voltage: N/A
 - nominal voltage: N/A
 - minimum voltage: N/A
 - nominal energy: N/A
 - maximum discharge current: N/A
 - maximum charge current: N/A
 - mass: N/A
 - volume: N/A
 - surface area: N/A
 - characteristic mass: N/A
 - mass of active material: N/A
 - x: N/A
 - Molecular weight of active material at x=0: N/A
 - Acquisition started at x0=: N/A
 - Intercalated ion molecular weight of active material at x=0: N/A
 - Number of electrons transferred per intercalated ions: N/A

Test Run:
  - name: EC2_Group3_DS
  - tags: N/A
  - creator: Labor Labor
  - batch number: N/A
  - started on: 2025-09-16 10:23:18.6718
  - finished on: 2025-09-16 21:51:28.0414

Dut Run:
  - DUT Name: N/A
  - Comment: N/A

Instrument:
  - channel: A.7
  - model: BCS-905
  - serial number: 0729

System version: 3.0.0-9
System address: 10.128.128.50

Time /s,Step,Task,Cycle number,Loop 1 number,Loop 2 number,Loop 3 number,Loop 4 number,U /V,I /A,P /W,Q /Ah,Q charge /Ah,Q discharge /Ah,Capacity /Ah,Energy /Wh,Energy charge /Wh,Energy discharge /Wh,Temperature /CelsiusDegrees,I Range /A,Phase,Frequency /Hz,Ua /V,Ia /A,Impedance module /Ohms,Impedance phase /rad,Real impedance /Ohms,- Imaginary impedance /Ohms,Admittance module /Ohms,Admittance phase /rad,Real admittance /Ohms,Imaginary admittance /Ohms,@Var1,@Var2,@Var3,@Var4,@Var5,@Var6,@Var7,@Var8,@Var9,@Var10,Date Time /ns,Duration (step) /s,Umin (step) /V,Umax (step) /V,Umean (step) /V,Ubegin (step) /V,Uend (step) /V,Imin (step) /A,Imax (step) /A,Imean (step) /A,Ibegin (step) /A,Iend (step) /A,Q (step) /Ah,Q charge (step) /Ah,Q discharge (step) /Ah,Energy (step) /Wh,Energy charge (step) /Wh,Energy discharge (step) /Wh,Pmin (step) /W,Pmax (step) /W,Rdc (step) /Ohms,Rac (step) /Ohms,Counter value (loop),Loop ID (loop),List value (loop),Duration (loop) /s,Q (loop) /Ah,Q charge (loop) /Ah,Q discharge (loop) /Ah,Energy (loop) /Wh,Energy charge (loop) /Wh,Energy discharge (loop) /Wh,Duration (cycle) /s,Q (cycle) /Ah,Q charge (cycle) /Ah,Q discharge (cycle) /Ah,Efficiency (cycle) /none,Energy (cycle) /Wh,Energy charge (cycle) /Wh,Energy discharge (cycle) /Wh
0.005,task_1,REST,,,,,,0.349772,0.0,0.0,0.0,0.0,0.0,0.0,0.0,0.0,0.0,,,,,,,,,,,,,,,,,,,,,,,,,1.75802e+09,,,,,,,,,,,,,,,,,,,,,,,,,,,,,,,,,,,,,,,
900.005,task_1,REST,,,,,,0.386553,0.0,0.0,0.0,0.0,0.0,0.0,0.0,0.0,0.0,,,,,,,,,,,,,,,,,,,,,,,,,1.75802e+09,,,,,,,,,,,,,,,,,,,,,,,,,,,,,,,,,,,,,,,
1800.005,task_1,REST,,,,,,0.398532,0.0,0.0,0.0,0.0,0.0,0.0,0.0,0.0,0.0,,,,,,,,,,,,,,,,,,,,,,,,,1.75802e+09,,,,,,,,,,,,,,,,,,,,,,,,,,,,,,,,,,,,,,,
2700.005,task_1,REST,,,,,,-0.172257,0.0,-0.0,0.0,0.0,0.0,0.0,0.0,0.0,0.0,,,,,,,,,,,,,,,,,,,,,,,,,1.75802e+09,,,,,,,,,,,,,,,,,,,,,,,,,,,,,,,,,,,,,,,
3600.005,task_1,REST,,,,,,0.404745,0.0,0.0,0.0,0.0,0.0,0.0,0.0,0.0,0.0,,,,,,,,,,,,,,,,,,,,,,,,,1.75802e+09,,,,,,,,,,,,,,,,,,,,,,,,,,,,,,,,,,,,,,,
4500.005,task_1,REST,,,,,,0.407904,0.0,0.0,0.0,0.0,0.0,0.0,0.0,0.0,0.0,,,,,,,,,,,,,,,,,,,,,,,,,1.75802e+09,,,,,,,,,,,,,,,,,,,,,,,,,,,,,,,,,,,,,,,
5400.005,task_1,REST,,,,,,0.279999,0.0,0.0,0.0,0.0,0.0,0.0,0.0,0.0,0.0,,,,,,,,,,,,,,,,,,,,,,,,,1.75802e+09,,,,,,,,,,,,,,,,,,,,,,,,,,,,,,,,,,,,,,,
6300.005,task_1,REST,,,,,,0.402156,0.0,0.0,0.0,0.0,0.0,0.0,0.0,0.0,0.0,,,,,,,,,,,,,,,,,,,,,,,,,1.75802e+09,,,,,,,,,,,,,,,,,,,,,,,,,,,,,,,,,,,,,,,
7200.005,task_1,REST,,,,,,0.411179,0.0,0.0,0.0,0.0,0.0,0.0,0.0,0.0,0.0,,,,,,,,,,,,,,,,,,,,,,,,,1.75803e+09,,,,,,,,,,,,,,,,,,,,,,,,,,,,,,,,,,,,,,,
8100.005,task_1,REST,,,,,,-0.122496,0.0,-0.0,0.0,0.0,0.0,0.0,0.0,0.0,0.0,,,,,,,,,,,,,,,,,,,,,,,,,1.75803e+09,,,,,,,,,,,,,,,,,,,,,,,,,,,,,,,,,,,,,,,
9000.005,task_1,REST,,,,,,0.400372,0.0,0.0,0.0,0.0,0.0,0.0,0.0,0.0,0.0,,,,,,,,,,,,,,,,,,,,,,,,,1.75803e+09,,,,,,,,,,,,,,,,,,,,,,,,,,,,,,,,,,,,,,,
9900.005,task_1,REST,,,,,,-0.172257,0.0,-0.0,0.0,0.0,0.0,0.0,0.0,0.0,0.0,,,,,,,,,,,,,,,,,,,,,,,,,1.75803e+09,,,,,,,,,,,,,,,,,,,,,,,,,,,,,,,,,,,,,,,
10800.005,task_1,REST,,,,,,0.0136446,0.0,0.0,0.0,0.0,0.0,0.0,0.0,0.0,0.0,,,,,,,,,,,,,,,,,,,,,,,,,1.75803e+09,,,,,,,,,,,,,,,,,,,,,,,,,,,,,,,,,,,,,,,
11700.005,task_1,REST,,,,,,0.315095,0.0,0.0,0.0,0.0,0.0,0.0,0.0,0.0,0.0,,,,,,,,,,,,,,,,,,,,,,,,,1.75803e+09,,,,,,,,,,,,,,,,,,,,,,,,,,,,,,,,,,,,,,,
12600.005,task_1,REST,,,,,,-0.172257,0.0,-0.0,0.0,0.0,0.0,0.0,0.0,0.0,0.0,,,,,,,,,,,,,,,,,,,,,,,,,1.75803e+09,,,,,,,,,,,,,,,,,,,,,,,,,,,,,,,,,,,,,,,
13500.005,task_1,REST,,,,,,-0.172257,0.0,-0.0,0.0,0.0,0.0,0.0,0.0,0.0,0.0,,,,,,,,,,,,,,,,,,,,,,,,,1.75803e+09,,,,,,,,,,,,,,,,,,,,,,,,,,,,,,,,,,,,,,,
14400.005,task_1,REST,,,,,,0.0099921,0.0,0.0,0.0,0.0,0.0,0.0,0.0,0.0,0.0,,,,,,,,,,,,,,,,,,,,,,,,,1.75803e+09,,,,,,,,,,,,,,,,,,,,,,,,,,,,,,,,,,,,,,,
15300.005,task_1,REST,,,,,,-0.172257,0.0,-0.0,0.0,0.0,0.0,0.0,0.0,0.0,0.0,,,,,,,,,,,,,,,,,,,,,,,,,1.75803e+09,,,,,,,,,,,,,,,,,,,,,,,,,,,,,,,,,,,,,,,
16200.005,task_1,REST,,,,,,0.402813,0.0,0.0,0.0,0.0,0.0,0.0,0.0,0.0,0.0,,,,,,,,,,,,,,,,,,,,,,,,,1.75803e+09,,,,,,,,,,,,,,,,,,,,,,,,,,,,,,,,,,,,,,,
17100.005,task_1,REST,,,,,,0.399588,0.0,0.0,0.0,0.0,0.0,0.0,0.0,0.0,0.0,,,,,,,,,,,,,,,,,,,,,,,,,1.75804e+09,,,,,,,,,,,,,,,,,,,,,,,,,,,,,,,,,,,,,,,
18000.005,task_1,REST,,,,,,0.174226,0.0,0.0,0.0,0.0,0.0,0.0,0.0,0.0,0.0,,,,,,,,,,,,,,,,,,,,,,,,,1.75804e+09,,,,,,,,,,,,,,,,,,,,,,,,,,,,,,,,,,,,,,,
18900.005,task_1,REST,,,,,,-0.159402,0.0,-0.0,0.0,0.0,0.0,0.0,0.0,0.0,0.0,,,,,,,,,,,,,,,,,,,,,,,,,1.75804e+09,,,,,,,,,,,,,,,,,,,,,,,,,,,,,,,,,,,,,,,
19800.005,task_1,REST,,,,,,0.379245,0.0,0.0,0.0,0.0,0.0,0.0,0.0,0.0,0.0,,,,,,,,,,,,,,,,,,,,,,,,,1.75804e+09,,,,,,,,,,,,,,,,,,,,,,,,,,,,,,,,,,,,,,,
20700.005,task_1,REST,,,,,,0.325877,0.0,0.0,0.0,0.0,0.0,0.0,0.0,0.0,0.0,,,,,,,,,,,,,,,,,,,,,,,,,1.75804e+09,,,,,,,,,,,,,,,,,,,,,,,,,,,,,,,,,,,,,,,
21600.002,task_1,REST,,,,,,0.364873,0.0,0.0,0.0,0.0,0.0,0.0,0.0,0.0,0.0,,,,,,,,,,,,,,,,,,,,,,,,,1.75804e+09,,,,,,,,,,,,,,,,,,,,,,,,,,,,,,,,,,,,,,,
22470.075,task_3,CC,1,1,,,,4.12111,0.000237794,0.000979975,5.74637e-05,5.74637e-05,0.0,5.74637e-05,0.000214078,0.000214078,0.0,,0.001,CHARGE,,,,,,,,,,,,,,,,,,,,,,1.75804e+09,,,,,,,,,,,,,,,,,,,,,,,,,,,,,,,,,,,,,,,
23071.606,task_3,CC,4,4,,,,4.06052,0.000237776,0.000965494,8.12684e-05,1.98152e-06,0.0,1.98152e-06,0.000323431,7.84782e-06,0.0,,0.001,CHARGE,,,,,,,,,,,,,,,,,,,,,,1.75804e+09,,,,,,,,,,,,,,,,,,,,,,,,,,,,,,,,,,,,,,,
23785.813,task_3,CC,6,6,,,,3.94052,0.000237757,0.000936887,0.000110288,1.1889e-05,0.0,1.1889e-05,0.000454833,4.7169e-05,0.0,,0.001,CHARGE,,,,,,,,,,,,,,,,,,,,,,1.75804e+09,,,,,,,,,,,,,,,,,,,,,,,,,,,,,,,,,,,,,,,
24588.484,task_3,CC,7,7,,,,3.90535,0.000237663,0.000928157,0.000154983,3.76479e-05,0.0,3.76479e-05,0.000633458,0.000145397,0.0,,0.001,CHARGE,,,,,,,,,,,,,,,,,,,,,,1.75804e+09,,,,,,,,,,,,,,,,,,,,,,,,,,,,,,,,,,,,,,,
25397.063,task_3,CC,8,8,,,,3.94162,0.00023774,0.000937078,0.000186508,9.90747e-06,0.0,9.90747e-06,0.000771556,3.92652e-05,0.0,,0.001,CHARGE,,,,,,,,,,,,,,,,,,,,,,1.75804e+09,,,,,,,,,,,,,,,,,,,,,,,,,,,,,,,,,,,,,,,
26297.063,task_3,CC,8,8,,,,3.74464,0.000237755,0.000890308,0.000245952,6.9351e-05,0.0,6.9351e-05,0.00099548,0.000263189,0.0,,0.001,CHARGE,,,,,,,,,,,,,,,,,,,,,,1.75804e+09,,,,,,,,,,,,,,,,,,,,,,,,,,,,,,,,,,,,,,,
27197.063,task_3,CC,8,8,,,,3.78241,0.00023771,0.000899116,0.000305395,0.000128794,0.0,0.000128794,0.00122131,0.000489015,0.0,,0.001,CHARGE,,,,,,,,,,,,,,,,,,,,,,1.75805e+09,,,,,,,,,,,,,,,,,,,,,,,,,,,,,,,,,,,,,,,
28097.063,task_3,CC,8,8,,,,3.84638,0.000238058,0.000915662,0.000364839,0.000188238,0.0,0.000188238,0.00144797,0.000715675,0.0,,0.001,CHARGE,,,,,,,,,,,,,,,,,,,,,,1.75805e+09,,,,,,,,,,,,,,,,,,,,,,,,,,,,,,,,,,,,,,,
28997.063,task_3,CC,8,8,,,,3.69163,0.000237762,0.000877729,0.000424282,0.000247681,0.0,0.000247681,0.00167511,0.000942818,0.0,,0.001,CHARGE,,,,,,,,,,,,,,,,,,,,,,1.75805e+09,,,,,,,,,,,,,,,,,,,,,,,,,,,,,,,,,,,,,,,
29897.063,task_3,CC,8,8,,,,3.65119,0.000237743,0.000868043,0.000483726,0.000307125,0.0,0.000307125,0.00189011,0.00115782,0.0,,0.001,CHARGE,,,,,,,,,,,,,,,,,,,,,,1.75805e+09,,,,,,,,,,,,,,,,,,,,,,,,,,,,,,,,,,,,,,,
30797.063,task_3,CC,8,8,,,,3.81949,0.000237831,0.000908394,0.000543169,0.000366568,0.0,0.000366568,0.00211341,0.00138112,0.0,,0.001,CHARGE,,,,,,,,,,,,,,,,,,,,,,1.75805e+09,,,,,,,,,,,,,,,,,,,,,,,,,,,,,,,,,,,,,,,
31697.063,task_3,CC,8,8,,,,3.72007,0.000237915,0.000885058,0.000602613,0.000426012,0.0,0.000426012,0.00233724,0.00160495,0.0,,0.001,CHARGE,,,,,,,,,,,,,,,,,,,,,,1.75805e+09,,,,,,,,,,,,,,,,,,,,,,,,,,,,,,,,,,,,,,,
32597.063,task_3,CC,8,8,,,,3.42537,0.000237847,0.000814713,0.000662056,0.000485455,0.0,0.000485455,0.00255214,0.00181985,0.0,,0.001,CHARGE,,,,,,,,,,,,,,,,,,,,,,1.75805e+09,,,,,,,,,,,,,,,,,,,,,,,,,,,,,,,,,,,,,,,
33497.063,task_3,CC,8,8,,,,3.40755,0.000237759,0.000810176,0.000721499,0.000544898,0.0,0.000544898,0.00276188,0.00202959,0.0,,0.001,CHARGE,,,,,,,,,,,,,,,,,,,,,,1.75805e+09,,,,,,,,,,,,,,,,,,,,,,,,,,,,,,,,,,,,,,,
34397.063,task_3,CC,8,8,,,,3.0096,0.000237749,0.000715529,0.000780944,0.000604343,0.0,0.000604343,0.00295984,0.00222755,0.0,,0.001,CHARGE,,,,,,,,,,,,,,,,,,,,,,1.75805e+09,,,,,,,,,,,,,,,,,,,,,,,,,,,,,,,,,,,,,,,
35297.063,task_3,CC,8,8,,,,3.40139,0.000237765,0.000808731,0.000840389,0.000663788,0.0,0.000663788,0.00314621,0.00241392,0.0,,0.001,CHARGE,,,,,,,,,,,,,,,,,,,,,,1.75805e+09,,,,,,,,,,,,,,,,,,,,,,,,,,,,,,,,,,,,,,,
36197.063,task_3,CC,8,8,,,,3.56503,0.00023773,0.000847515,0.000899835,0.000723234,0.0,0.000723234,0.00334753,0.00261524,0.0,,0.001,CHARGE,,,,,,,,,,,,,,,,,,,,,,1.75805e+09,,,,,,,,,,,,,,,,,,,,,,,,,,,,,,,,,,,,,,,
37097.063,task_3,CC,8,8,,,,3.55903,0.000237765,0.000846212,0.00095928,0.000782679,0.0,0.000782679,0.00357072,0.00283843,0.0,,0.001,CHARGE,,,,,,,,,,,,,,,,,,,,,,1.75806e+09,,,,,,,,,,,,,,,,,,,,,,,,,,,,,,,,,,,,,,,
37997.063,task_3,CC,8,8,,,,3.8842,0.000237771,0.000923551,0.00101872,0.000842123,0.0,0.000842123,0.00379142,0.00305912,0.0,,0.001,CHARGE,,,,,,,,,,,,,,,,,,,,,,1.75806e+09,,,,,,,,,,,,,,,,,,,,,,,,,,,,,,,,,,,,,,,
38897.063,task_3,CC,8,8,,,,3.91992,0.000237704,0.00093178,0.00107817,0.000901569,0.0,0.000901569,0.00402424,0.00329194,0.0,,0.001,CHARGE,,,,,,,,,,,,,,,,,,,,,,1.75806e+09,,,,,,,,,,,,,,,,,,,,,,,,,,,,,,,,,,,,,,,
39797.063,task_3,CC,8,8,,,,3.78169,0.000237736,0.000899041,0.00113762,0.000961014,0.0,0.000961014,0.00424948,0.00351719,0.0,,0.001,CHARGE,,,,,,,,,,,,,,,,,,,,,,1.75806e+09,,,,,,,,,,,,,,,,,,,,,,,,,,,,,,,,,,,,,,,
40616.566,task_3,CC,9,9,,,,4.08814,0.000237759,0.000971994,0.00116148,1.98161e-06,0.0,1.98161e-06,0.0043559,7.91139e-06,0.0,,0.001,CHARGE,,,,,,,,,,,,,,,,,,,,,,1.75806e+09,,,,,,,,,,,,,,,,,,,,,,,,,,,,,,,,,,,,,,,
41288.045,task_6,CC,11,,1,,,4.25838,0.00234969,0.0100059,0.00115215,1.93857e-08,0.0,1.93857e-08,0.00435576,7.17392e-08,0.0,,0.01,CHARGE,,,,,,,,,,,,,,,,,,,,,,1.75806e+09,,,,,,,,,,,,,,,,,,,,,,,,,,,,,,,,,,,,,,,
41288.501,task_7,CC,18,,8,,,2.30926,-0.00234795,-0.00542203,0.00115214,0.0,1.27727e-08,1.27727e-08,0.00435581,0.0,3.65649e-08,,0.01,DISCHARGE,,,,,,,,,,,,,,,,,,,,,,1.75806e+09,,,,,,,,,,,,,,,,,,,,,,,,,,,,,,,,,,,,,,,
41288.816,task_9,CC,26,,,6,,4.60942,0.00462935,0.0213386,0.00115215,8.8e-09,0.0,8.8e-09,0.00435593,3.43905e-08,0.0,,0.01,CHARGE,,,,,,,,,,,,,,,,,,,,,,1.75806e+09,,,,,,,,,,,,,,,,,,,,,,,,,,,,,,,,,,,,,,,
23955.419,task_3,CC,6,6,,,,,,,,,,,,,,,,CHARGE,,,,,,,,,,,,,,,,,,,,,,1758042153.419,349.606,2.59874,4.20069,3.95005,2.59874,4.20069,0.000233285,0.000238659,0.000237777,0.000233285,0.000237628,2.30912e-05,2.30912e-05,0.0,9.12113e-05,9.12113e-05,0.0,0.000606247,0.000999208,,,,,,,,,,,,,,,,,,,,
41288.642,task_9,CC,21,,,1,,,,,,,,,,,,,,CHARGE,,,,,,,,,,,,,,,,,,,,,,1758059486.642,0.008,2.6663,4.65855,3.90928,2.6663,4.65855,0.00399754,0.00480526,0.00454815,0.00399754,0.00480526,1.0107e-08,1.0107e-08,0.0,3.97965e-08,3.97965e-08,0.0,0.0106586,0.0223855,,,,,,,,,,,,,,,,,,,,
41288.075,task_5,LOOP,11,,1,,,,,,,,,,,,,,,,,,,,,,,,,,,,,,,,,,,,,1758059486.075,,,,,,,,,,,,,,,,,,,,,,1,2,1.0,0.05,6.60551e-09,1.93857e-08,1.27802e-08,3.50758e-08,7.17392e-08,3.66634e-08,,,,,,,,
41288.075,,,11,,,,,,,,,,,,,,,,,,,,,,,,,,,,,,,,,,,,,,,1758059486.075,,,,,,,,,,,,,,,,,,,,,,,,,,,,,,,,0.059,6.60551e-09,1.93857e-08,1.27802e-08,0.659258,3.50758e-08,7.17392e-08,3.66634e-08
41288.976,,,30,,,,,,,,,,,,,,,,,,,,,,,,,,,,,,,,,,,,,,,1758059486.976,,,,,,,,,,,,,,,,,,,,,,,,,,,,,,,,0.024,-1.34975e-09,8.79563e-09,1.01454e-08,1.15346,8.03412e-09,3.50286e-08,2.69945e-08